Time,LE,F4,C4,P4,P3,C3,F3,Pz,Trigger,Time_Offset,ADC_Status,ADC_Sequence,Event,Comments
0.0033,-68.4,64.5,-240.0,-168.3,8.1,-165.9,-58.8,0,0,6,0,161,0,
0.0067,-60.0,102.3,-217.5,-134.1,15.9,-156.0,-30.3,0,0,12,0,162,0,
0.0100,-55.5,68.4,-231.3,-158.1,5.7,-166.5,-44.4,0,0,18,0,163,0,
0.0133,-49.8,52.2,-241.5,-182.7,-0.3,-168.0,-55.2,0,0,24,0,164,0,
0.0167,-57.0,60.9,-234.6,-180.3,-3.9,-168.3,-56.7,0,0,30,0,165,0,
0.0200,-46.5,88.8,-222.9,-161.7,0.3,-163.8,-45.6,0,0,36,0,166,0,
0.0233,-52.5,115.8,-204.6,-133.5,9.3,-158.1,-28.2,0,0,42,0,167,0,
0.0267,-50.7,109.5,-215.4,-154.2,6.3,-162.0,-30.3,0,0,48,0,168,0,
0.0300,-45.3,47.4,-243.0,-185.4,-1.5,-170.1,-63.0,0,0,54,0,169,0,
0.0333,-43.8,58.8,-231.3,-180.3,4.5,-158.4,-51.6,0,0,60,0,170,0,
0.0367,-60.3,78.3,-219.0,-160.8,9.0,-160.2,-42.3,0,0,66,0,171,0,
0.0400,-51.9,104.7,-203.1,-133.8,15.6,-160.8,-34.2,0,0,72,0,172,0,
0.0433,-51.3,82.5,-218.7,-147.9,7.5,-168.6,-50.4,0,0,78,0,173,0,
0.0467,-60.6,53.7,-238.8,-179.4,-0.3,-175.2,-61.8,0,0,84,0,174,0,
0.0500,-60.6,50.1,-238.2,-180.3,-1.2,-178.5,-62.4,0,0,90,0,175,0,
0.0533,-58.5,74.4,-225.6,-166.8,0.9,-176.4,-54.0,0,0,96,0,176,0,
0.0567,-72.0,123.9,-207.9,-138.0,9.9,-170.7,-46.5,0,0,102,0,177,0,
0.0600,-57.0,63.0,-233.1,-163.5,1.5,-174.9,-53.1,0,0,108,0,178,0,
0.0633,-63.6,34.8,-245.1,-191.1,-7.2,-180.0,-69.3,0,0,114,0,179,0,
0.0667,-64.8,33.9,-243.3,-183.6,-0.3,-177.9,-70.5,0,0,120,0,180,0,
0.0700,-69.6,50.7,-233.7,-168.0,-1.2,-181.2,-66.0,0,0,126,0,181,0,
0.0733,-71.4,81.6,-218.1,-141.0,7.5,-172.2,-48.0,0,0,132,0,182,0,
0.0767,-66.9,69.9,-230.7,-163.2,-0.9,-175.5,-61.5,0,0,138,0,183,0,
0.0800,-56.7,54.0,-238.2,-186.9,-5.7,-175.2,-65.1,0,0,144,0,184,0,
0.0833,-57.3,52.5,-234.0,-189.0,-2.4,-178.2,-63.6,0,0,150,0,185,0,
0.0867,-62.4,68.4,-225.6,-168.6,-0.6,-175.8,-58.8,0,0,156,0,186,0,
0.0900,-64.5,104.7,-210.9,-141.3,7.2,-170.7,-45.9,0,0,162,0,187,0,
0.0933,-61.8,86.7,-226.2,-159.0,2.1,-176.1,-52.5,0,0,168,0,188,0,
0.0967,-53.1,63.3,-236.1,-180.9,-3.0,-179.1,-57.3,0,0,174,0,189,0,
0.1000,-68.4,70.8,-237.6,-185.7,-5.7,-179.1,-54.9,0,0,180,0,190,0,
0.1033,-66.3,54.6,-233.4,-170.7,3.6,-171.6,-46.5,0,0,186,0,191,0,
0.1067,-75.0,98.7,-213.9,-138.9,8.1,-169.8,-43.2,0,0,192,0,192,0,
0.1100,-56.1,62.7,-232.5,-160.2,3.0,-174.6,-46.2,0,0,198,0,193,0,
0.1133,-56.7,50.7,-241.5,-180.6,-2.7,-178.5,-63.0,0,0,204,0,194,0,
0.1167,-56.4,49.5,-237.9,-183.0,1.5,-176.1,-70.5,0,0,210,0,195,0,
0.1200,-53.7,72.9,-222.9,-166.8,4.8,-172.2,-55.5,0,0,216,0,196,0,
0.1233,-55.2,95.4,-205.5,-134.7,14.1,-166.2,-41.4,0,0,222,0,197,0,
0.1267,-49.5,87.9,-215.4,-146.4,9.6,-166.2,-40.5,0,0,228,0,198,0,
0.1300,-41.7,76.8,-228.0,-173.7,0.6,-173.7,-55.8,0,0,234,0,199,0,
0.1333,-44.7,71.7,-222.9,-176.1,4.5,-170.4,-47.4,0,0,240,0,200,0,
0.1367,-55.8,81.3,-216.3,-159.0,9.9,-167.7,-42.3,0,0,246,0,201,0,
0.1400,-55.5,105.9,-205.2,-132.6,16.8,-164.4,-32.7,0,0,252,0,202,0,
0.1433,-48.6,93.9,-217.5,-151.2,9.3,-165.9,-39.3,0,0,258,0,203,0,
0.1467,-39.3,74.1,-225.0,-178.2,5.1,-173.4,-52.8,0,0,264,0,204,0,
0.1500,-39.9,74.4,-224.4,-181.8,3.0,-171.3,-53.4,0,0,270,0,205,0,
0.1533,-42.9,82.5,-216.0,-160.5,10.2,-170.7,-42.0,0,0,276,0,206,0,
0.1567,-60.3,118.5,-200.4,-135.3,12.3,-167.1,-27.6,0,0,282,0,207,0,
0.1600,-45.3,95.4,-218.7,-155.7,7.2,-172.2,-35.4,0,0,288,0,208,0,
0.1633,-40.2,51.6,-238.5,-186.0,0.9,-169.8,-41.1,0,0,294,0,209,0,
0.1667,-50.7,61.8,-230.1,-184.2,2.4,-171.0,-49.5,0,0,300,0,210,0,
0.1700,-47.7,69.9,-221.1,-163.2,4.2,-166.8,-46.8,0,0,306,0,211,0,
0.1733,-56.1,106.2,-198.3,-134.7,15.6,-160.2,-26.4,0,0,312,0,212,0,
0.1767,-39.0,90.0,-212.4,-151.5,8.1,-162.0,-33.6,0,0,318,0,213,0,
0.1800,-45.3,64.5,-229.5,-183.9,-1.5,-169.8,-47.4,0,0,324,0,214,0,
0.1833,-49.2,81.6,-215.4,-178.8,1.5,-169.5,-52.8,0,0,330,0,215,0,
0.1867,-59.7,79.8,-216.3,-163.5,6.0,-168.9,-48.6,0,0,336,0,216,0,
0.1900,-55.5,108.0,-206.4,-140.1,13.2,-160.8,-26.4,0,0,342,0,217,0,
0.1933,-50.1,74.4,-228.3,-156.0,6.6,-165.9,-41.1,0,0,348,0,218,0,
0.1967,-54.3,62.7,-236.1,-179.1,1.8,-172.2,-56.1,0,0,354,0,219,0,
0.2000,-48.3,46.2,-242.4,-188.7,0.6,-171.0,-56.4,0,0,360,0,220,0,
0.2033,-63.0,67.8,-220.8,-165.6,7.8,-166.2,-38.7,0,0,366,0,221,0,
0.2067,-59.7,100.8,-214.5,-138.6,14.1,-160.5,-25.2,0,0,372,0,222,0,
0.2100,-51.0,80.1,-227.7,-154.5,4.5,-166.8,-37.8,0,0,378,0,223,0,
0.2133,-38.1,56.1,-234.6,-178.8,0.3,-169.2,-46.8,0,0,384,0,224,0,
0.2167,-43.2,62.7,-219.3,-175.2,-0.3,-168.6,-49.5,0,0,390,0,225,0,
0.2200,-30.3,101.7,-213.6,-160.8,6.9,-160.5,-32.7,0,0,396,0,226,0,
0.2233,-38.7,109.5,-212.7,-134.7,12.9,-159.6,-21.6,0,0,402,0,227,0,
0.2267,-45.9,93.6,-197.4,-145.2,4.5,-168.3,-37.8,0,0,408,0,228,0,
0.2300,-23.1,51.0,-254.7,-186.3,-0.3,-167.7,-42.6,0,0,414,0,229,0,
0.2333,-33.3,61.2,-239.1,-183.3,0.9,-173.1,-54.3,0,0,420,0,230,0,
0.2367,-34.5,71.7,-233.1,-164.7,10.8,-164.1,-38.4,0,0,426,0,231,0,
0.2400,-52.8,94.5,-215.1,-138.6,7.8,-166.8,-36.3,0,0,432,0,232,0,
0.2433,-35.7,78.6,-239.1,-157.5,4.5,-169.8,-38.4,0,0,438,0,233,0,
0.2467,-41.4,59.7,-234.6,-175.2,-3.9,-175.2,-55.2,0,0,444,0,234,0,
0.2500,-33.6,85.8,-234.9,-178.8,-0.6,-172.2,-52.5,0,0,450,0,235,0,
0.2533,-45.9,75.6,-222.3,-161.4,-0.9,-173.7,-52.8,0,0,456,0,236,0,
0.2567,-43.8,81.6,-221.7,-138.6,10.2,-164.4,-41.7,0,0,462,0,237,0,
0.2600,-41.4,77.4,-223.8,-153.6,3.3,-169.2,-43.5,0,0,468,0,238,0,
0.2633,-37.8,59.4,-243.9,-179.4,0.9,-171.0,-54.0,0,0,474,0,239,0,
0.2667,-44.4,60.0,-234.9,-176.1,-1.2,-173.1,-54.9,0,0,480,0,240,0,
0.2700,-40.2,72.3,-237.0,-164.4,3.0,-169.2,-48.3,0,0,486,0,241,0,
0.2733,-47.7,102.9,-213.6,-138.3,6.9,-164.7,-36.0,0,0,492,0,242,0,
0.2767,-39.9,90.6,-227.1,-146.7,7.8,-169.2,-37.2,0,0,498,0,243,0,
0.2800,-38.1,86.7,-237.0,-169.5,3.0,-169.5,-42.9,0,0,504,0,244,0,
0.2833,-32.1,62.1,-231.0,-171.9,5.1,-164.4,-39.3,0,0,510,0,245,0,
0.2867,-37.8,71.1,-229.8,-159.9,9.9,-163.5,-35.7,0,0,516,0,246,0,
0.2900,-26.7,101.4,-219.6,-138.9,17.7,-159.9,-20.7,0,0,522,0,247,0,
0.2933,-39.0,81.9,-233.4,-152.7,7.5,-171.0,-39.6,0,0,528,0,248,0,
0.2967,-30.0,63.9,-245.7,-178.5,0.6,-177.0,-49.5,0,0,534,0,249,0,
0.3000,-29.1,62.7,-242.4,-177.9,-2.1,-180.0,-50.7,0,0,540,0,250,0,
0.3033,-28.8,74.4,-232.2,-165.6,1.5,-173.7,-39.0,0,0,546,0,251,0,
0.3067,-40.5,93.9,-220.2,-142.8,7.2,-174.0,-31.2,0,0,552,0,252,0,
0.3100,-36.3,84.9,-229.5,-158.7,3.0,-171.6,-36.6,0,0,558,0,253,0,
0.3133,-29.1,74.7,-243.0,-181.5,-3.3,-173.4,-48.0,0,0,564,0,254,0,
0.3167,-38.7,72.3,-241.2,-180.9,-3.0,-174.3,-44.1,0,0,570,0,255,0,
0.3200,-39.9,65.1,-232.5,-168.0,2.1,-169.5,-31.2,0,0,576,0,0,0,
0.3233,-48.9,85.2,-225.6,-147.3,3.6,-169.2,-33.9,0,0,582,0,1,0,
0.3267,-51.3,64.2,-243.6,-169.2,-2.4,-183.3,-50.7,0,0,588,0,2,0,
0.3300,-48.6,52.5,-252.6,-191.4,-7.5,-182.4,-58.2,0,0,594,0,3,0,
0.3333,-41.1,58.2,-251.4,-190.8,-2.1,-177.3,-56.1,0,0,600,0,4,0,
0.3367,-52.8,72.6,-235.8,-175.5,0.6,-176.1,-53.1,0,0,606,0,5,0,
0.3400,-45.9,95.7,-222.9,-148.5,6.9,-170.1,-34.8,0,0,612,0,6,0,
0.3433,-36.6,92.4,-230.7,-164.7,3.0,-171.9,-36.0,0,0,618,0,7,0,
0.3467,-33.0,64.2,-240.3,-177.0,-0.3,-174.3,-49.8,0,0,624,0,8,0,
0.3500,-39.0,59.7,-240.3,-181.5,-0.9,-169.2,-49.2,0,0,630,0,9,0,
0.3533,-38.7,75.0,-234.3,-171.0,7.2,-166.5,-36.0,0,0,636,0,10,0,
0.3567,-45.9,98.4,-222.9,-146.1,10.2,-165.0,-29.4,0,0,642,0,11,0,
0.3600,-37.5,84.9,-232.8,-159.6,6.9,-166.8,-39.0,0,0,648,0,12,0,
0.3633,-30.6,68.7,-239.7,-177.9,3.9,-166.5,-46.8,0,0,654,0,13,0,
0.3667,-35.4,59.4,-237.3,-179.1,8.1,-162.6,-46.5,0,0,660,0,14,0,
0.3700,-36.3,69.0,-229.8,-165.0,5.1,-164.4,-39.3,0,0,666,0,15,0,
0.3733,-43.5,96.9,-217.8,-143.4,12.3,-159.3,-29.1,0,0,672,0,16,0,
0.3767,-37.8,84.6,-225.9,-153.9,6.6,-160.5,-36.9,0,0,678,0,17,0,
0.3800,-37.8,56.7,-238.5,-182.7,1.2,-163.8,-50.7,0,0,684,0,18,0,
0.3833,-45.0,72.0,-236.7,-182.1,-0.6,-168.6,-54.0,0,0,690,0,19,0,
0.3867,-42.6,86.1,-231.3,-166.5,6.6,-162.3,-44.1,0,0,696,0,20,0,
0.3900,-45.9,99.0,-219.6,-144.6,10.5,-160.2,-33.6,0,0,702,0,21,0,
0.3933,-39.9,83.1,-235.5,-158.7,8.7,-162.9,-44.7,0,0,708,0,22,0,
0.3967,-40.2,63.3,-249.6,-181.5,-2.4,-173.7,-52.2,0,0,714,0,23,0,
0.4000,-44.4,60.0,-240.3,-184.5,2.4,-167.4,-52.8,0,0,720,0,24,0,
0.4033,-50.1,70.8,-237.3,-173.4,6.9,-165.6,-54.0,0,0,726,0,25,0,
0.4067,-51.6,94.2,-222.3,-149.4,11.1,-162.6,-43.2,0,0,732,0,26,0,
0.4100,-49.5,69.9,-233.4,-159.6,8.1,-163.5,-51.6,0,0,738,0,27,0,
0.4133,-37.8,60.0,-240.6,-184.8,3.3,-168.0,-60.0,0,0,744,0,28,0,
0.4167,-52.2,67.5,-234.0,-184.5,2.1,-166.8,-61.2,0,0,750,0,29,0,
0.4200,-45.0,78.9,-221.7,-175.8,7.5,-162.0,-47.4,0,0,756,0,30,0,
0.4233,-54.6,91.5,-222.0,-156.0,8.7,-163.2,-38.1,0,0,762,0,31,0,
0.4267,-40.5,75.3,-228.0,-162.9,9.0,-163.2,-46.5,0,0,768,0,32,0,
0.4300,-41.1,58.8,-243.6,-185.7,4.8,-164.4,-55.8,0,0,774,0,33,0,
0.4333,-36.0,78.6,-232.8,-181.8,3.0,-165.6,-53.7,0,0,780,0,34,0,
0.4367,-39.3,78.0,-223.8,-169.5,5.7,-161.4,-42.9,0,0,786,0,35,0,
0.4400,-36.0,90.0,-216.6,-149.7,15.3,-156.9,-34.5,0,0,792,0,36,0,
0.4433,-50.1,72.6,-223.8,-161.1,11.1,-162.3,-42.0,0,0,798,0,37,0,
0.4467,-43.5,50.4,-234.3,-180.3,0.6,-169.5,-56.7,0,0,804,0,38,0,
0.4500,-37.8,60.9,-235.5,-182.1,4.2,-164.4,-56.7,0,0,810,0,39,0,
0.4533,-36.6,69.6,-225.3,-167.1,7.8,-165.0,-49.2,0,0,816,0,40,0,
0.4567,-36.9,91.2,-221.4,-140.7,12.9,-161.1,-38.7,0,0,822,0,41,0,
0.4600,-39.9,72.6,-231.9,-156.9,4.8,-169.5,-49.5,0,0,828,0,42,0,
0.4633,-50.7,64.5,-244.8,-186.9,-6.6,-178.8,-61.5,0,0,834,0,43,0,
0.4667,-42.3,60.6,-241.5,-190.8,-2.4,-175.8,-61.8,0,0,840,0,44,0,
0.4700,-51.9,67.5,-236.7,-171.0,2.1,-169.2,-51.9,0,0,846,0,45,0,
0.4733,-52.2,77.4,-227.4,-148.8,9.9,-168.3,-39.3,0,0,852,0,46,0,
0.4767,-51.3,65.4,-228.3,-159.0,-0.9,-175.2,-60.0,0,0,858,0,47,0,
0.4800,-33.0,35.1,-257.7,-194.7,-4.8,-179.7,-67.2,0,0,864,0,48,0,
0.4833,-48.0,40.5,-247.8,-189.3,-2.7,-178.8,-69.9,0,0,870,0,49,0,
0.4867,-37.5,56.1,-236.7,-177.0,0.3,-177.3,-63.6,0,0,876,0,50,0,
0.4900,-46.2,78.3,-227.7,-152.1,0.0,-173.1,-48.0,0,0,882,0,51,0,
0.4933,-39.3,78.9,-232.2,-163.5,-3.3,-176.1,-51.9,0,0,888,0,52,0,
0.4967,-30.9,60.3,-244.5,-186.0,-7.2,-177.6,-63.6,0,0,894,0,53,0,
0.5000,-32.1,63.9,-235.2,-186.0,-4.5,-176.7,-60.0,0,0,900,0,54,0,
0.5033,-40.5,79.2,-227.4,-169.5,4.5,-168.0,-43.2,0,0,906,0,55,0,
0.5067,-46.5,83.1,-215.7,-144.0,7.2,-164.4,-28.8,0,0,912,0,56,0,
0.5100,-39.6,55.8,-237.9,-164.4,0.0,-174.0,-58.2,0,0,918,0,57,0,
0.5133,-34.8,48.3,-243.3,-186.3,-2.1,-174.9,-67.2,0,0,924,0,58,0,
0.5167,-31.2,50.1,-239.7,-185.7,0.6,-171.6,-63.9,0,0,930,0,59,0,
0.5200,-33.6,64.8,-233.1,-168.9,4.2,-174.0,-57.0,0,0,936,0,60,0,
0.5233,-46.2,86.4,-225.0,-149.7,7.5,-174.9,-46.2,0,0,942,0,61,0,
0.5267,-35.1,70.2,-229.5,-159.0,5.4,-175.2,-48.9,0,0,948,0,62,0,
0.5300,-30.9,54.9,-238.5,-179.7,4.2,-173.1,-51.6,0,0,954,0,63,0,
0.5333,-35.4,71.7,-235.5,-180.6,1.8,-172.2,-48.9,0,0,960,0,64,0,
0.5367,-36.9,71.7,-230.4,-164.7,7.2,-171.3,-43.8,0,0,966,0,65,0,
0.5400,-45.3,95.7,-221.4,-148.2,8.1,-170.7,-35.7,0,0,972,0,66,0,
0.5433,-44.7,79.2,-224.7,-161.1,3.3,-173.1,-47.1,0,0,978,0,67,0,
0.5467,-36.6,54.6,-241.2,-181.2,-1.2,-175.8,-56.4,0,0,984,0,68,0,
0.5500,-45.3,45.6,-246.9,-183.9,1.5,-175.2,-56.7,0,0,990,0,69,0,
0.5533,-37.5,70.2,-237.0,-172.5,3.0,-176.1,-51.3,0,0,996,0,70,0,
0.5567,-36.3,71.4,-231.3,-156.9,5.4,-173.1,-45.6,0,0,1002,0,71,0,
0.5600,-35.1,71.4,-232.2,-164.4,3.6,-177.9,-52.2,0,0,1008,0,72,0,
0.5633,-34.5,59.7,-241.5,-190.5,-3.0,-180.0,-58.8,0,0,1014,0,73,0,
0.5667,-32.1,49.2,-242.7,-186.0,1.8,-176.7,-63.0,0,0,1020,0,74,0,
0.5700,-34.8,72.6,-231.9,-170.7,6.6,-168.3,-49.5,0,0,1026,0,75,0,
0.5733,-42.6,86.1,-222.3,-150.6,10.8,-170.4,-40.2,0,0,1032,0,76,0,
0.5767,-38.1,84.6,-229.2,-157.8,5.7,-174.6,-46.8,0,0,1038,0,77,0,
0.5800,-31.8,46.5,-245.7,-182.7,0.6,-176.4,-55.8,0,0,1044,0,78,0,
0.5833,-36.0,40.8,-246.9,-182.4,3.9,-173.7,-54.0,0,0,1050,0,79,0,
0.5867,-22.8,49.8,-237.0,-170.1,8.1,-176.7,-55.5,0,0,1056,0,80,0,
0.5900,-48.3,67.8,-232.2,-153.9,10.5,-177.6,-52.5,0,0,1062,0,81,0,
0.5933,-45.3,64.5,-237.6,-163.5,2.7,-180.0,-60.9,0,0,1068,0,82,0,
0.5967,-30.6,40.2,-250.8,-187.8,-3.0,-181.8,-70.2,0,0,1074,0,83,0,
0.6000,-35.4,51.0,-245.4,-191.4,-3.3,-179.4,-65.7,0,0,1080,0,84,0,
0.6033,-32.4,56.4,-239.1,-176.1,-0.6,-181.2,-63.0,0,0,1086,0,85,0,
0.6067,-54.0,72.3,-231.6,-158.1,3.3,-180.6,-53.7,0,0,1092,0,86,0,
0.6100,-50.1,68.7,-237.6,-170.7,-2.7,-187.5,-60.0,0,0,1098,0,87,0,
0.6133,-57.0,46.2,-254.7,-192.3,-9.9,-194.4,-77.1,0,0,1104,0,88,0,
0.6167,-49.5,23.1,-254.7,-195.3,-5.7,-186.6,-69.6,0,0,1110,0,89,0,
0.6200,-35.1,56.7,-239.7,-176.1,2.1,-176.7,-47.1,0,0,1116,0,90,0,
0.6233,-46.5,78.0,-225.3,-152.7,11.7,-171.0,-34.2,0,0,1122,0,91,0,
0.6267,-45.6,69.3,-233.4,-164.7,5.1,-176.1,-48.6,0,0,1128,0,92,0,
0.6300,-40.8,52.5,-243.0,-190.5,-0.3,-181.5,-63.6,0,0,1134,0,93,0,
0.6333,-35.1,77.7,-231.6,-183.6,2.7,-175.2,-56.7,0,0,1140,0,94,0,
0.6367,-50.4,85.5,-227.1,-171.3,7.8,-171.3,-48.3,0,0,1146,0,95,0,
0.6400,-54.9,70.5,-228.0,-156.3,9.0,-171.9,-46.8,0,0,1152,0,96,0,
0.6433,-51.3,61.2,-234.3,-163.5,7.2,-171.6,-46.8,0,0,1158,0,97,0,
0.6467,-40.8,44.1,-244.5,-189.3,1.8,-176.4,-55.8,0,0,1164,0,98,0,
0.6500,-51.6,56.7,-242.7,-189.9,2.7,-175.5,-57.6,0,0,1170,0,99,0,
0.6533,-58.5,77.7,-229.2,-174.9,4.5,-175.2,-49.2,0,0,1176,0,100,0,
0.6567,-55.8,81.0,-225.0,-153.9,10.8,-171.3,-40.2,0,0,1182,0,101,0,
0.6600,-46.2,75.3,-235.8,-170.7,6.9,-172.8,-50.1,0,0,1188,0,102,0,
0.6633,-56.4,34.5,-248.1,-189.0,1.5,-176.1,-57.9,0,0,1194,0,103,0,
0.6667,-52.5,50.1,-244.5,-186.0,3.6,-171.9,-56.7,0,0,1200,0,104,0,
0.6700,-61.2,53.4,-237.3,-178.2,5.4,-172.2,-57.6,0,0,1206,0,105,0,
0.6733,-56.4,78.3,-227.1,-156.3,10.5,-169.8,-48.3,0,0,1212,0,106,0,
0.6767,-50.1,58.5,-232.5,-162.9,9.0,-169.8,-47.1,0,0,1218,0,107,0,
0.6800,-39.3,50.1,-240.3,-185.7,3.9,-171.6,-58.2,0,0,1224,0,108,0,
0.6833,-48.6,51.6,-241.2,-192.9,4.8,-174.3,-60.9,0,0,1230,0,109,0,
0.6867,-52.8,58.2,-234.3,-177.3,5.1,-168.6,-54.0,0,0,1236,0,110,0,
0.6900,-55.2,73.5,-224.4,-159.9,9.0,-166.8,-38.1,0,0,1242,0,111,0,
0.6933,-47.7,63.9,-234.9,-170.4,3.0,-173.7,-44.4,0,0,1248,0,112,0,
0.6967,-43.8,52.5,-238.2,-185.7,2.1,-173.1,-55.8,0,0,1254,0,113,0,
0.7000,-42.6,52.2,-240.9,-186.9,3.3,-172.5,-53.7,0,0,1260,0,114,0,
0.7033,-56.4,62.4,-236.1,-178.2,5.4,-168.6,-48.9,0,0,1266,0,115,0,
0.7067,-56.1,78.3,-230.1,-153.6,9.0,-168.6,-42.6,0,0,1272,0,116,0,
0.7100,-51.3,76.8,-240.0,-169.8,4.2,-172.5,-52.8,0,0,1278,0,117,0,
0.7133,-42.0,60.6,-249.9,-187.2,-1.5,-169.8,-56.1,0,0,1284,0,118,0,
0.7167,-50.1,45.9,-249.9,-186.3,-0.6,-173.1,-58.5,0,0,1290,0,119,0,
0.7200,-52.8,55.8,-249.0,-181.8,-1.8,-178.5,-57.6,0,0,1296,0,120,0,
0.7233,-60.6,80.7,-234.9,-158.1,3.3,-172.2,-46.2,0,0,1302,0,121,0,
0.7267,-57.9,72.3,-246.9,-170.4,0.3,-175.5,-49.5,0,0,1308,0,122,0,
0.7300,-49.8,31.2,-258.3,-192.6,-3.6,-177.6,-66.9,0,0,1314,0,123,0,
0.7333,-54.6,32.4,-253.5,-192.0,-2.1,-177.3,-68.4,0,0,1320,0,124,0,
0.7367,-48.6,56.4,-239.1,-178.5,1.8,-170.7,-55.5,0,0,1326,0,125,0,
0.7400,-52.8,81.3,-226.5,-155.4,5.7,-168.6,-43.8,0,0,1332,0,126,0,
0.7433,-46.8,77.4,-230.4,-162.0,2.1,-174.9,-45.0,0,0,1338,0,127,0,
0.7467,-39.3,50.1,-240.9,-182.1,-0.3,-174.0,-55.8,0,0,1344,0,128,0,
0.7500,-32.4,53.1,-236.1,-178.5,-1.5,-175.8,-50.7,0,0,1350,0,129,0,
0.7533,-44.1,68.4,-225.0,-166.8,5.7,-167.4,-40.2,0,0,1356,0,130,0,
0.7567,-44.7,77.4,-220.5,-148.8,8.1,-171.9,-40.8,0,0,1362,0,131,0,
0.7600,-42.9,69.0,-230.4,-163.8,5.1,-172.5,-48.3,0,0,1368,0,132,0,
0.7633,-41.4,55.8,-237.3,-181.8,-2.1,-175.8,-54.0,0,0,1374,0,133,0,
0.7667,-39.6,69.3,-233.1,-178.5,-2.4,-173.4,-49.2,0,0,1380,0,134,0,
0.7700,-49.2,70.2,-230.7,-171.0,0.0,-178.8,-51.6,0,0,1386,0,135,0,
0.7733,-41.4,105.3,-215.4,-151.2,7.8,-164.1,-33.0,0,0,1392,0,136,0,
0.7767,-38.1,78.6,-225.6,-168.3,3.3,-171.9,-37.5,0,0,1398,0,137,0,
0.7800,-35.7,55.5,-240.3,-181.5,-0.3,-171.9,-46.2,0,0,1404,0,138,0,
0.7833,-33.9,59.1,-236.7,-185.7,0.3,-169.8,-44.4,0,0,1410,0,139,0,
0.7867,-33.0,71.4,-225.9,-173.4,6.6,-164.7,-39.6,0,0,1416,0,140,0,
0.7900,-33.9,87.9,-218.7,-155.1,10.8,-161.4,-29.7,0,0,1422,0,141,0,
0.7933,-30.9,74.4,-229.2,-163.2,9.6,-163.2,-39.3,0,0,1428,0,142,0,
0.7967,-29.1,64.8,-239.1,-190.8,0.9,-170.1,-46.8,0,0,1434,0,143,0,
0.8000,-27.6,63.6,-237.9,-188.4,2.1,-166.8,-42.3,0,0,1440,0,144,0,
0.8033,-36.0,61.2,-238.5,-184.8,3.0,-165.9,-43.8,0,0,1446,0,145,0,
0.8067,-41.4,76.8,-230.7,-164.1,7.5,-167.4,-38.1,0,0,1452,0,146,0,
0.8100,-41.4,67.5,-237.3,-172.5,-0.6,-169.5,-45.9,0,0,1458,0,147,0,
0.8133,-35.1,57.9,-246.6,-186.0,-2.1,-169.5,-45.9,0,0,1464,0,148,0,
0.8167,-43.5,60.9,-240.0,-190.2,-1.5,-167.1,-47.7,0,0,1470,0,149,0,
0.8200,-43.2,64.5,-236.1,-179.7,4.5,-167.1,-46.8,0,0,1476,0,150,0,
0.8233,-44.1,81.0,-228.6,-159.0,5.7,-167.1,-39.9,0,0,1482,0,151,0,
0.8267,-39.0,75.6,-232.8,-167.4,4.2,-164.7,-41.4,0,0,1488,0,152,0,
0.8300,-49.5,41.4,-248.4,-188.1,-1.5,-170.4,-53.1,0,0,1494,0,153,0,
0.8333,-48.6,49.8,-245.4,-192.3,0.0,-169.2,-54.9,0,0,1500,0,154,0,
0.8367,-47.1,63.6,-234.3,-176.4,0.9,-171.0,-48.9,0,0,1506,0,155,0,
0.8400,-50.1,61.8,-228.3,-162.6,4.2,-172.8,-47.1,0,0,1512,0,156,0,
0.8433,-51.3,54.0,-235.8,-168.0,3.3,-170.7,-44.7,0,0,1518,0,157,0,
0.8467,-38.4,45.6,-242.7,-185.4,-3.0,-168.6,-48.6,0,0,1524,0,158,0,
0.8500,-41.4,51.6,-244.5,-187.5,-3.3,-171.6,-55.2,0,0,1530,0,159,0,
0.8533,-51.9,69.6,-237.9,-175.8,-5.1,-175.5,-56.1,0,0,1536,0,160,0,
0.8567,-54.0,64.5,-231.0,-157.8,0.9,-177.3,-45.0,0,0,1542,0,161,0,
0.8600,-47.7,54.6,-236.4,-168.3,0.9,-180.3,-54.3,0,0,1548,0,162,0,
0.8633,-51.3,48.0,-245.7,-186.9,-3.6,-183.0,-59.7,0,0,1554,0,163,0,
0.8667,-42.3,53.7,-242.1,-184.2,-0.9,-175.8,-54.6,0,0,1560,0,164,0,
0.8700,-47.1,53.7,-240.3,-181.5,-1.5,-174.6,-44.4,0,0,1566,0,165,0,
0.8733,-48.9,72.3,-225.6,-158.4,6.3,-170.1,-43.8,0,0,1572,0,166,0,
0.8767,-44.7,69.9,-231.6,-165.3,0.9,-175.5,-47.1,0,0,1578,0,167,0,
0.8800,-38.4,55.8,-241.2,-183.0,0.6,-171.6,-54.3,0,0,1584,0,168,0,
0.8833,-38.4,45.0,-239.7,-189.6,2.7,-171.3,-54.0,0,0,1590,0,169,0,
0.8867,-36.0,61.8,-234.6,-180.3,1.8,-167.4,-47.7,0,0,1596,0,170,0,
0.8900,-43.8,72.0,-228.3,-164.4,9.9,-165.0,-36.9,0,0,1602,0,171,0,
0.8933,-35.4,66.6,-229.8,-168.3,9.3,-159.0,-36.0,0,0,1608,0,172,0,
0.8967,-33.9,51.9,-240.9,-186.6,4.8,-164.4,-45.9,0,0,1614,0,173,0,
0.9000,-34.8,49.8,-245.1,-191.1,0.0,-166.8,-46.2,0,0,1620,0,174,0,
0.9033,-35.4,63.0,-235.2,-180.6,3.6,-165.6,-41.4,0,0,1626,0,175,0,
0.9067,-42.3,76.8,-226.8,-159.6,13.2,-163.2,-32.4,0,0,1632,0,176,0,
0.9100,-45.3,62.4,-240.0,-171.3,6.0,-169.2,-48.3,0,0,1638,0,177,0,
0.9133,-50.4,55.5,-245.4,-191.1,-1.2,-172.5,-55.5,0,0,1644,0,178,0,
0.9167,-45.0,36.0,-249.6,-193.5,0.0,-174.6,-57.0,0,0,1650,0,179,0,
0.9200,-49.5,42.6,-244.5,-185.7,-0.6,-171.3,-53.4,0,0,1656,0,180,0,
0.9233,-51.3,58.8,-236.7,-164.7,4.8,-174.0,-44.1,0,0,1662,0,181,0,
0.9267,-52.8,51.6,-247.8,-174.0,-1.2,-178.2,-48.6,0,0,1668,0,182,0,
0.9300,-51.9,39.6,-258.9,-191.1,-4.8,-179.4,-57.0,0,0,1674,0,183,0,
0.9333,-59.4,37.5,-256.8,-191.7,0.0,-180.3,-61.5,0,0,1680,0,184,0,
0.9367,-61.5,43.8,-251.1,-179.1,3.0,-178.8,-56.4,0,0,1686,0,185,0,
0.9400,-63.9,56.1,-245.4,-163.8,7.2,-175.8,-47.7,0,0,1692,0,186,0,
0.9433,-60.3,49.2,-246.6,-170.4,6.0,-175.5,-52.8,0,0,1698,0,187,0,
0.9467,-53.7,24.6,-257.4,-186.0,5.7,-177.0,-57.9,0,0,1704,0,188,0,
0.9500,-53.1,24.9,-251.4,-185.4,2.1,-172.2,-61.2,0,0,1710,0,189,0,
0.9533,-51.3,39.9,-245.7,-177.3,8.4,-172.2,-53.1,0,0,1716,0,190,0,
0.9567,-57.0,64.5,-230.7,-156.3,9.0,-166.5,-41.7,0,0,1722,0,191,0,
0.9600,-54.9,59.4,-240.9,-170.7,0.9,-177.0,-47.1,0,0,1728,0,192,0,
0.9633,-54.9,57.6,-244.5,-187.8,-0.6,-178.5,-45.6,0,0,1734,0,193,0,
0.9667,-45.3,59.7,-240.0,-186.9,1.8,-175.2,-42.3,0,0,1740,0,194,0,
0.9700,-51.3,62.7,-237.9,-178.8,3.9,-175.5,-44.1,0,0,1746,0,195,0,
0.9733,-53.1,79.5,-225.6,-158.1,10.2,-173.1,-33.9,0,0,1752,0,196,0,
0.9767,-54.0,59.1,-239.1,-166.8,3.3,-181.8,-43.8,0,0,1758,0,197,0,
0.9800,-55.8,35.7,-249.9,-186.6,-3.3,-182.7,-63.6,0,0,1764,0,198,0,
0.9833,-51.9,42.9,-243.3,-183.3,-0.3,-181.5,-59.4,0,0,1770,0,199,0,
0.9867,-60.0,57.6,-245.4,-179.1,-3.0,-184.5,-56.1,0,0,1776,0,200,0,
0.9900,-65.7,75.6,-236.7,-163.5,1.5,-180.6,-45.6,0,0,1782,0,201,0,
0.9933,-58.5,66.6,-242.1,-173.4,2.4,-180.3,-50.4,0,0,1788,0,202,0,
0.9967,-58.8,39.6,-251.1,-189.9,0.6,-182.1,-54.9,0,0,1794,0,203,0,
1.0000,-53.1,52.2,-246.3,-188.1,-3.9,-181.5,-52.8,0,0,1800,0,204,0,
1.0033,-54.0,60.6,-243.6,-179.7,2.4,-178.5,-48.6,0,0,1806,0,205,0,
1.0067,-51.9,75.6,-228.9,-165.9,8.1,-171.3,-33.6,0,0,1812,0,206,0,
1.0100,-40.5,74.4,-231.3,-167.4,6.9,-174.9,-39.3,0,0,1818,0,207,0,
1.0133,-43.5,55.2,-243.9,-184.8,-2.4,-179.7,-52.5,0,0,1824,0,208,0,
1.0167,-46.2,48.0,-246.3,-186.6,-2.1,-179.4,-56.7,0,0,1830,0,209,0,
1.0200,-50.1,48.0,-241.5,-178.2,2.7,-180.0,-49.5,0,0,1836,0,210,0,
1.0233,-48.9,63.6,-230.1,-155.7,9.3,-177.6,-42.0,0,0,1842,0,211,0,
1.0267,-53.7,52.5,-243.3,-170.1,3.3,-182.4,-49.5,0,0,1848,0,212,0,
1.0300,-41.7,48.9,-245.1,-180.0,0.6,-181.2,-56.4,0,0,1854,0,213,0,
1.0333,-49.2,45.6,-247.2,-181.2,1.8,-182.4,-57.9,0,0,1860,0,214,0,
1.0367,-50.1,49.8,-240.9,-173.7,4.5,-182.4,-53.7,0,0,1866,0,215,0,
1.0400,-56.7,63.6,-236.1,-162.6,4.2,-183.6,-54.0,0,0,1872,0,216,0,
1.0433,-52.8,42.0,-243.6,-171.6,2.4,-186.6,-63.6,0,0,1878,0,217,0,
1.0467,-50.4,29.4,-250.5,-187.8,0.0,-181.8,-67.8,0,0,1884,0,218,0,
1.0500,-50.4,38.1,-248.4,-192.0,-3.9,-190.2,-68.4,0,0,1890,0,219,0,
1.0533,-58.2,47.4,-242.4,-179.1,0.0,-185.7,-61.5,0,0,1896,0,220,0,
1.0567,-64.5,59.1,-234.3,-158.4,6.6,-183.0,-61.2,0,0,1902,0,221,0,
1.0600,-54.9,42.9,-241.2,-168.0,3.9,-181.2,-64.5,0,0,1908,0,222,0,
1.0633,-53.4,35.4,-250.5,-184.5,0.0,-181.5,-65.4,0,0,1914,0,223,0,
1.0667,-42.0,42.6,-246.0,-183.9,2.1,-179.4,-58.5,0,0,1920,0,224,0,
1.0700,-48.0,44.7,-239.1,-171.6,5.1,-178.2,-52.8,0,0,1926,0,225,0,
1.0733,-46.2,61.5,-233.1,-157.8,9.3,-174.9,-39.6,0,0,1932,0,226,0,
1.0767,-49.2,57.6,-239.7,-172.5,3.0,-181.2,-51.0,0,0,1938,0,227,0,
1.0800,-45.9,42.3,-252.6,-189.9,2.4,-183.9,-56.1,0,0,1944,0,228,0,
1.0833,-46.2,36.0,-252.0,-191.7,1.2,-184.2,-59.1,0,0,1950,0,229,0,
1.0867,-51.9,45.6,-244.8,-179.1,6.0,-180.3,-51.9,0,0,1956,0,230,0,
1.0900,-56.1,60.9,-240.3,-162.0,9.9,-178.5,-45.3,0,0,1962,0,231,0,
1.0933,-50.4,56.7,-247.8,-171.6,5.7,-178.8,-45.0,0,0,1968,0,232,0,
1.0967,-47.4,32.4,-261.0,-189.9,1.5,-181.5,-60.3,0,0,1974,0,233,0,
1.1000,-53.4,42.0,-254.7,-188.1,4.8,-180.9,-58.2,0,0,1980,0,234,0,
1.1033,-50.1,51.6,-246.3,-181.2,9.6,-178.5,-55.2,0,0,1986,0,235,0,
1.1067,-54.0,50.4,-245.1,-161.7,7.2,-182.1,-51.6,0,0,1992,0,236,0,
1.1100,-58.5,36.0,-255.9,-174.6,-0.6,-186.3,-65.1,0,0,1998,0,237,0,
1.1133,-66.3,15.3,-268.2,-192.3,-4.8,-190.2,-77.1,0,0,2004,0,238,0,
1.1167,-70.5,18.3,-266.1,-192.9,-6.3,-195.0,-82.8,0,0,2010,0,239,0,
1.1200,-58.2,36.9,-255.0,-183.6,-0.9,-189.0,-71.7,0,0,2016,0,240,0,
1.1233,-50.7,55.5,-243.3,-162.3,3.0,-186.9,-60.9,0,0,2022,0,241,0,
1.1267,-42.9,50.1,-248.7,-169.8,-0.9,-191.4,-63.6,0,0,2028,0,242,0,
1.1300,-51.3,25.2,-261.0,-189.6,-2.1,-193.5,-78.3,0,0,2034,0,243,0,
1.1333,-57.0,10.8,-266.7,-196.8,0.3,-192.6,-85.8,0,0,2040,0,244,0,
1.1367,-55.8,27.6,-253.5,-183.9,1.2,-192.6,-75.9,0,0,2046,0,245,0,
1.1400,-56.7,42.9,-248.1,-173.7,1.2,-190.5,-69.6,0,0,2052,0,246,0,
1.1433,-40.5,47.7,-245.7,-175.2,2.7,-186.3,-60.6,0,0,2058,0,247,0,
1.1467,-28.2,42.6,-250.8,-190.2,-3.6,-187.8,-67.2,0,0,2064,0,248,0,
1.1500,-25.2,40.8,-248.4,-187.8,2.4,-182.7,-62.1,0,0,2070,0,249,0,
1.1533,-26.7,42.0,-243.6,-182.4,4.5,-181.5,-59.4,0,0,2076,0,250,0,
1.1567,-39.0,64.5,-233.1,-163.5,9.0,-180.9,-55.8,0,0,2082,0,251,0,
1.1600,-42.9,47.4,-249.3,-174.0,0.3,-193.5,-70.2,0,0,2088,0,252,0,
1.1633,-35.7,34.8,-256.2,-189.6,-0.6,-192.0,-78.6,0,0,2094,0,253,0,
1.1667,-36.0,37.5,-256.8,-195.3,-3.0,-192.3,-79.2,0,0,2100,0,254,0,
1.1700,-40.5,39.6,-252.6,-186.9,0.6,-183.9,-68.4,0,0,2106,0,255,0,
1.1733,-36.6,57.3,-237.9,-164.4,9.9,-179.4,-53.7,0,0,2112,0,0,0,
1.1767,-33.3,45.3,-244.5,-173.1,3.9,-188.7,-60.3,0,0,2118,0,1,0,
1.1800,-30.3,31.2,-254.1,-195.3,-2.4,-191.1,-70.5,0,0,2124,0,2,0,
1.1833,-35.4,32.1,-250.2,-195.3,-1.8,-189.3,-68.1,0,0,2130,0,3,0,
1.1867,-38.1,39.3,-246.0,-183.6,-2.7,-189.9,-67.2,0,0,2136,0,4,0,
1.1900,-41.7,60.9,-231.6,-161.7,5.4,-186.3,-60.9,0,0,2142,0,5,0,
1.1933,-36.9,61.8,-237.0,-171.0,0.6,-185.4,-60.9,0,0,2148,0,6,0,
1.1967,-28.5,42.0,-247.2,-192.0,-1.8,-189.0,-66.0,0,0,2154,0,7,0,
1.2000,-33.0,39.3,-248.1,-193.2,-5.4,-190.8,-69.9,0,0,2160,0,8,0,
1.2033,-38.4,43.2,-244.5,-179.4,-1.2,-188.7,-67.5,0,0,2166,0,9,0,
1.2067,-52.2,48.9,-238.5,-163.2,3.6,-190.2,-62.1,0,0,2172,0,10,0,
1.2100,-43.5,36.3,-248.4,-174.0,-0.9,-193.8,-70.8,0,0,2178,0,11,0,
1.2133,-39.0,17.1,-257.1,-193.2,-5.1,-196.2,-75.3,0,0,2184,0,12,0,
1.2167,-35.1,25.2,-252.0,-195.6,-6.0,-192.9,-71.4,0,0,2190,0,13,0,
1.2200,-46.5,35.1,-245.1,-185.1,-2.1,-188.1,-70.2,0,0,2196,0,14,0,
1.2233,-49.8,61.2,-234.3,-162.9,1.5,-186.3,-63.6,0,0,2202,0,15,0,
1.2267,-48.6,41.1,-251.7,-182.4,-6.6,-197.7,-73.2,0,0,2208,0,16,0,
1.2300,-45.0,3.3,-267.6,-208.2,-17.4,-206.4,-90.0,0,0,2214,0,17,0,
1.2333,-38.7,12.3,-256.5,-207.0,-5.7,-196.5,-80.7,0,0,2220,0,18,0,
1.2367,-48.3,34.2,-246.9,-189.0,-3.6,-194.4,-76.2,0,0,2226,0,19,0,
1.2400,-50.4,54.0,-237.0,-165.9,5.1,-186.9,-60.3,0,0,2232,0,20,0,
1.2433,-32.4,43.2,-247.2,-177.9,0.9,-191.1,-64.5,0,0,2238,0,21,0,
1.2467,-29.7,22.2,-256.8,-198.9,-3.0,-192.0,-76.8,0,0,2244,0,22,0,
1.2500,-24.3,39.0,-250.2,-195.6,-0.6,-190.2,-70.2,0,0,2250,0,23,0,
1.2533,-27.9,51.3,-240.0,-183.3,3.6,-186.0,-65.1,0,0,2256,0,24,0,
1.2567,-35.4,73.2,-232.2,-163.5,6.0,-187.2,-59.7,0,0,2262,0,25,0,
1.2600,-29.7,42.6,-242.4,-172.8,1.5,-186.3,-64.8,0,0,2268,0,26,0,
1.2633,-22.5,21.9,-247.2,-192.0,-1.5,-183.9,-68.7,0,0,2274,0,27,0,
1.2667,-29.7,32.1,-244.8,-189.9,-3.0,-181.8,-67.8,0,0,2280,0,28,0,
1.2700,-25.2,43.2,-235.8,-173.4,1.5,-181.2,-54.9,0,0,2286,0,29,0,
1.2733,-34.5,68.4,-223.5,-151.5,9.9,-174.6,-37.5,0,0,2292,0,30,0,
1.2767,-23.4,55.5,-230.7,-165.3,3.9,-182.1,-56.7,0,0,2298,0,31,0,
1.2800,-24.6,37.5,-244.5,-189.9,-0.9,-182.7,-67.8,0,0,2304,0,32,0,
1.2833,-21.9,34.8,-241.5,-188.1,-2.4,-184.8,-68.7,0,0,2310,0,33,0,
1.2867,-34.2,57.0,-231.3,-174.9,-0.3,-186.3,-58.8,0,0,2316,0,34,0,
1.2900,-35.1,58.8,-228.6,-157.5,1.8,-185.1,-56.4,0,0,2322,0,35,0,
1.2933,-35.7,45.3,-239.1,-176.1,-2.7,-186.3,-60.9,0,0,2328,0,36,0,
1.2967,-24.9,40.5,-242.4,-197.7,-3.6,-185.7,-70.5,0,0,2334,0,37,0,
1.3000,-35.4,50.1,-239.7,-194.7,-8.1,-188.4,-58.2,0,0,2340,0,38,0,
1.3033,-36.9,40.8,-239.7,-179.4,-3.3,-185.7,-61.5,0,0,2346,0,39,0,
1.3067,-44.1,49.8,-229.8,-157.5,0.9,-190.2,-61.8,0,0,2352,0,40,0,
1.3100,-32.4,33.3,-237.6,-171.3,-2.4,-192.3,-68.7,0,0,2358,0,41,0,
1.3133,-25.8,23.4,-247.2,-193.2,-5.1,-192.3,-81.0,0,0,2364,0,42,0,
1.3167,-31.2,27.6,-244.5,-196.8,-7.5,-191.4,-75.9,0,0,2370,0,43,0,
1.3200,-27.0,39.6,-236.4,-180.0,3.3,-183.0,-65.4,0,0,2376,0,44,0,
1.3233,-23.1,66.3,-219.6,-155.1,5.4,-183.6,-52.5,0,0,2382,0,45,0,
1.3267,-18.3,62.1,-227.1,-165.0,4.2,-184.8,-57.3,0,0,2388,0,46,0,
1.3300,-17.4,45.3,-240.0,-189.3,-4.5,-188.1,-66.9,0,0,2394,0,47,0,
1.3333,-8.1,50.7,-232.5,-189.9,1.2,-180.9,-60.9,0,0,2400,0,48,0,
1.3367,-24.3,64.8,-225.9,-178.8,1.8,-180.9,-54.3,0,0,2406,0,49,0,
1.3400,-31.8,88.8,-210.9,-156.0,7.8,-178.5,-45.0,0,0,2412,0,50,0,
1.3433,-16.8,53.1,-233.4,-171.0,6.6,-181.5,-54.0,0,0,2418,0,51,0,
1.3467,-24.0,35.7,-236.7,-184.2,3.0,-175.5,-50.7,0,0,2424,0,52,0,
1.3500,-18.3,30.9,-237.9,-192.0,-0.6,-180.6,-70.2,0,0,2430,0,53,0,
1.3533,-24.6,57.6,-224.4,-178.2,1.8,-185.1,-60.0,0,0,2436,0,54,0,
1.3567,-21.3,68.4,-225.6,-157.2,10.5,-180.0,-44.4,0,0,2442,0,55,0,
1.3600,-25.5,54.6,-232.2,-172.2,3.0,-182.7,-50.7,0,0,2448,0,56,0,
1.3633,-21.3,35.4,-246.3,-191.7,1.2,-184.2,-63.3,0,0,2454,0,57,0,
1.3667,-27.9,43.5,-238.8,-195.3,-0.9,-186.0,-69.0,0,0,2460,0,58,0,
1.3700,-16.2,60.6,-226.2,-182.4,5.1,-176.4,-51.3,0,0,2466,0,59,0,
1.3733,-21.0,75.3,-217.8,-159.6,6.3,-177.3,-48.0,0,0,2472,0,60,0,
1.3767,-28.8,60.0,-226.2,-172.2,0.6,-177.6,-66.6,0,0,2478,0,61,0,
1.3800,-19.2,43.8,-237.3,-193.5,-5.7,-187.5,-70.2,0,0,2484,0,62,0,
1.3833,-19.5,57.3,-227.7,-192.0,-3.3,-183.3,-62.7,0,0,2490,0,63,0,
1.3867,-18.6,44.1,-223.2,-177.3,5.7,-178.2,-51.9,0,0,2496,0,64,0,
1.3900,-29.7,68.1,-218.1,-162.0,6.6,-177.9,-49.5,0,0,2502,0,65,0,
1.3933,-17.4,45.3,-233.4,-171.9,3.6,-178.8,-60.3,0,0,2508,0,66,0,
1.3967,-22.2,35.4,-238.8,-192.0,-1.5,-183.9,-68.4,0,0,2514,0,67,0,
1.4000,-15.9,27.3,-245.4,-192.9,-0.3,-183.0,-76.2,0,0,2520,0,68,0,
1.4033,-27.0,45.0,-237.0,-183.0,3.0,-180.6,-69.3,0,0,2526,0,69,0,
1.4067,-31.8,68.1,-222.9,-161.7,10.8,-176.4,-51.9,0,0,2532,0,70,0,
1.4100,-21.9,60.3,-229.8,-174.6,0.3,-189.0,-60.0,0,0,2538,0,71,0,
1.4133,-17.4,46.8,-233.7,-191.7,-2.4,-189.0,-63.6,0,0,2544,0,72,0,
1.4167,-19.5,45.3,-237.9,-193.5,-3.9,-183.9,-71.4,0,0,2550,0,73,0,
1.4200,-25.5,52.8,-230.4,-183.6,0.3,-187.2,-71.4,0,0,2556,0,74,0,
1.4233,-23.7,57.6,-225.6,-165.9,2.4,-189.3,-55.5,0,0,2562,0,75,0,
1.4267,-20.7,62.4,-231.0,-175.2,1.2,-185.7,-58.8,0,0,2568,0,76,0,
1.4300,-18.6,45.3,-241.2,-191.1,-2.1,-188.1,-75.9,0,0,2574,0,77,0,
1.4333,-23.4,36.3,-240.0,-195.9,-0.3,-181.8,-67.2,0,0,2580,0,78,0,
1.4367,-22.5,41.1,-236.1,-187.5,0.9,-183.9,-69.0,0,0,2586,0,79,0,
1.4400,-31.2,53.1,-234.6,-168.9,7.5,-175.5,-58.8,0,0,2592,0,80,0,
1.4433,-24.6,42.0,-236.1,-179.4,2.7,-180.6,-62.1,0,0,2598,0,81,0,
1.4467,-15.9,34.8,-242.1,-195.3,-3.6,-191.7,-65.7,0,0,2604,0,82,0,
1.4500,-24.6,25.8,-240.9,-198.0,-3.3,-190.2,-77.1,0,0,2610,0,83,0,
1.4533,-35.4,39.6,-239.7,-184.8,-3.3,-194.7,-77.1,0,0,2616,0,84,0,
1.4567,-20.7,70.8,-215.4,-156.6,3.6,-184.2,-60.0,0,0,2622,0,85,0,
1.4600,-23.1,61.2,-231.0,-173.1,-3.0,-191.7,-66.9,0,0,2628,0,86,0,
1.4633,-6.6,28.8,-244.2,-192.9,-3.3,-189.3,-74.7,0,0,2634,0,87,0,
1.4667,-26.4,50.7,-230.4,-188.4,-4.2,-191.4,-79.5,0,0,2640,0,88,0,
1.4700,-21.9,20.7,-240.3,-179.4,0.3,-187.5,-74.4,0,0,2646,0,89,0,
1.4733,-31.5,47.4,-231.6,-160.2,1.5,-186.6,-66.3,0,0,2652,0,90,0,
1.4767,-19.5,38.4,-239.4,-171.0,-2.4,-186.9,-73.2,0,0,2658,0,91,0,
1.4800,-16.8,29.1,-242.4,-190.5,-9.3,-192.0,-71.1,0,0,2664,0,92,0,
1.4833,-18.9,31.8,-242.4,-194.1,-6.3,-186.3,-69.0,0,0,2670,0,93,0,
1.4867,-21.0,44.7,-233.1,-179.4,-3.6,-192.9,-78.3,0,0,2676,0,94,0,
1.4900,-30.3,67.2,-222.0,-159.3,2.1,-183.6,-58.8,0,0,2682,0,95,0,
1.4933,-36.3,50.1,-241.8,-171.9,-4.2,-194.4,-79.8,0,0,2688,0,96,0,
1.4967,-22.2,38.4,-244.8,-189.6,-12.9,-197.1,-87.3,0,0,2694,0,97,0,
1.5000,-28.8,24.9,-240.0,-189.9,-8.4,-192.9,-85.8,0,0,2700,0,98,0,
1.5033,-32.7,55.8,-231.6,-178.8,-5.7,-189.9,-72.3,0,0,2706,0,99,0,
1.5067,-37.5,57.9,-232.2,-158.1,-2.1,-192.0,-69.3,0,0,2712,0,100,0,
1.5100,-35.4,50.7,-237.3,-169.8,-7.5,-195.9,-83.1,0,0,2718,0,101,0,
1.5133,-27.0,40.2,-243.3,-192.3,-17.1,-205.8,-85.2,0,0,2724,0,102,0,
1.5167,-30.3,35.7,-239.4,-193.5,-17.4,-198.6,-86.4,0,0,2730,0,103,0,
1.5200,-35.7,46.2,-234.3,-177.6,-11.1,-198.3,-78.9,0,0,2736,0,104,0,
1.5233,-38.4,61.8,-227.1,-160.2,-8.1,-202.2,-75.0,0,0,2742,0,105,0,
1.5267,-37.5,51.3,-231.3,-173.1,-10.8,-202.5,-78.3,0,0,2748,0,106,0,
1.5300,-28.5,22.5,-247.8,-199.2,-12.9,-183.0,-78.0,0,0,2754,0,107,0,
1.5333,-37.5,46.8,-229.2,-198.6,-16.5,-195.3,-88.2,0,0,2760,0,108,0,
1.5367,-36.6,49.8,-224.4,-179.7,-11.1,-191.4,-75.3,0,0,2766,0,109,0,
1.5400,-33.9,83.4,-215.7,-161.1,-3.3,-183.9,-66.0,0,0,2772,0,110,0,
1.5433,-29.7,63.9,-220.2,-170.7,-6.9,-186.9,-64.5,0,0,2778,0,111,0,
1.5467,-36.0,18.0,-246.0,-201.9,-19.5,-208.2,-86.1,0,0,2784,0,112,0,
1.5500,-12.6,14.1,-241.8,-194.4,-10.2,-193.8,-78.3,0,0,2790,0,113,0,
1.5533,-31.5,34.5,-233.7,-182.1,-8.4,-194.7,-79.8,0,0,2796,0,114,0,
1.5567,-36.0,57.6,-223.8,-168.0,-2.7,-187.5,-75.9,0,0,2802,0,115,0,
1.5600,-24.6,39.3,-237.3,-181.5,-15.0,-200.7,-86.1,0,0,2808,0,116,0,
1.5633,-38.7,20.7,-243.6,-200.4,-14.7,-202.8,-87.3,0,0,2814,0,117,0,
1.5667,-31.8,42.6,-228.9,-190.2,-14.7,-197.1,-77.7,0,0,2820,0,118,0,
1.5700,-31.5,51.3,-223.5,-183.9,-6.0,-185.1,-77.7,0,0,2826,0,119,0,
1.5733,-39.3,59.4,-217.2,-161.4,-3.6,-184.8,-61.2,0,0,2832,0,120,0,
1.5767,-28.8,48.9,-224.7,-174.3,-7.2,-182.1,-64.5,0,0,2838,0,121,0,
1.5800,-29.1,26.7,-240.3,-198.9,-12.3,-192.0,-78.9,0,0,2844,0,122,0,
1.5833,-32.1,33.6,-236.1,-198.0,-12.3,-197.1,-80.1,0,0,2850,0,123,0,
1.5867,-35.4,44.1,-230.4,-184.2,-8.7,-194.1,-71.7,0,0,2856,0,124,0,
1.5900,-43.2,49.5,-220.5,-160.5,-7.2,-195.0,-72.3,0,0,2862,0,125,0,
1.5933,-35.1,54.6,-228.3,-174.3,-9.3,-192.3,-77.1,0,0,2868,0,126,0,
1.5967,-29.1,24.3,-238.2,-192.0,-15.6,-193.2,-78.3,0,0,2874,0,127,0,
1.6000,-31.5,34.5,-233.4,-191.1,-10.8,-189.0,-71.4,0,0,2880,0,128,0,
1.6033,-31.2,51.9,-223.8,-177.9,-2.7,-175.5,-63.6,0,0,2886,0,129,0,
1.6067,-48.3,69.0,-213.6,-162.9,-4.5,-186.3,-52.5,0,0,2892,0,130,0,
1.6100,-36.0,48.3,-220.8,-176.7,-11.1,-189.0,-69.3,0,0,2898,0,131,0,
1.6133,-27.9,34.5,-237.9,-195.9,-9.9,-185.7,-73.8,0,0,2904,0,132,0,
1.6167,-33.6,40.5,-232.2,-194.7,-12.3,-189.6,-69.9,0,0,2910,0,133,0,
1.6200,-39.0,55.5,-215.4,-176.1,-10.2,-180.3,-66.9,0,0,2916,0,134,0,
1.6233,-38.7,57.6,-216.9,-163.2,-7.2,-187.2,-63.9,0,0,2922,0,135,0,
1.6267,-41.7,44.7,-225.6,-173.7,-13.5,-195.6,-75.6,0,0,2928,0,136,0,
1.6300,-29.4,29.7,-235.8,-195.9,-16.2,-196.2,-69.9,0,0,2934,0,137,0,
1.6333,-36.9,38.1,-229.5,-193.8,-14.4,-185.4,-77.1,0,0,2940,0,138,0,
1.6367,-42.9,51.9,-224.1,-182.1,-10.5,-186.3,-69.3,0,0,2946,0,139,0,
1.6400,-47.4,58.5,-215.7,-160.2,-9.9,-195.0,-72.3,0,0,2952,0,140,0,
1.6433,-39.3,51.3,-223.8,-175.5,-12.3,-197.1,-71.1,0,0,2958,0,141,0,
1.6467,-36.9,41.7,-226.5,-195.0,-19.2,-200.7,-80.4,0,0,2964,0,142,0,
1.6500,-40.2,28.5,-227.7,-197.4,-19.2,-192.9,-75.3,0,0,2970,0,143,0,
1.6533,-26.1,34.2,-219.3,-179.4,-12.9,-200.1,-71.1,0,0,2976,0,144,0,
1.6567,-42.9,72.3,-205.2,-156.9,-4.5,-187.8,-51.3,0,0,2982,0,145,0,
1.6600,-23.1,46.8,-222.6,-171.9,-8.1,-192.3,-61.8,0,0,2988,0,146,0,
1.6633,-35.7,30.0,-229.5,-190.2,-13.8,-194.1,-77.4,0,0,2994,0,147,0,
1.6667,-27.6,33.3,-233.7,-193.5,-14.1,-193.5,-71.1,0,0,3000,0,148,0,
1.6700,-38.1,41.7,-228.0,-179.7,-7.8,-189.9,-75.0,0,0,3006,0,149,0,
1.6733,-37.8,78.3,-210.6,-154.2,-6.0,-195.0,-58.5,0,0,3012,0,150,0,
1.6767,-33.9,42.6,-231.3,-172.2,-10.2,-195.3,-68.4,0,0,3018,0,151,0,
1.6800,-33.6,36.9,-231.3,-190.5,-16.2,-194.7,-72.9,0,0,3024,0,152,0,
1.6833,-30.0,40.2,-227.1,-189.3,-12.3,-185.7,-68.1,0,0,3030,0,153,0,
1.6867,-32.7,59.1,-216.3,-173.4,-7.5,-184.8,-66.3,0,0,3036,0,154,0,
1.6900,-33.9,67.2,-213.6,-154.5,-1.8,-184.2,-55.5,0,0,3042,0,155,0,
1.6933,-27.9,52.5,-223.5,-174.6,-8.7,-192.6,-66.3,0,0,3048,0,156,0,
1.6967,-24.0,35.1,-236.1,-193.8,-12.0,-190.2,-69.0,0,0,3054,0,157,0,
1.7000,-31.8,43.5,-223.2,-193.8,-13.2,-192.6,-71.1,0,0,3060,0,158,0,
1.7033,-37.5,50.4,-226.2,-187.5,-7.8,-187.2,-63.6,0,0,3066,0,159,0,
1.7067,-36.3,66.9,-211.8,-163.8,-1.2,-186.3,-59.4,0,0,3072,0,160,0,
1.7100,-30.9,40.5,-224.4,-180.0,-6.0,-185.1,-71.7,0,0,3078,0,161,0,
1.7133,-25.2,31.2,-237.3,-199.2,-17.7,-201.6,-78.6,0,0,3084,0,162,0,
1.7167,-30.9,40.5,-234.6,-200.7,-16.8,-192.3,-79.5,0,0,3090,0,163,0,
1.7200,-33.9,54.3,-223.2,-187.5,-11.1,-192.9,-75.0,0,0,3096,0,164,0,
1.7233,-39.6,78.3,-214.8,-163.2,-4.2,-187.5,-64.5,0,0,3102,0,165,0,
1.7267,-34.2,54.9,-220.2,-170.7,-6.6,-190.8,-65.4,0,0,3108,0,166,0,
1.7300,-16.5,44.7,-233.7,-194.4,-12.9,-187.8,-78.6,0,0,3114,0,167,0,
1.7333,-21.6,52.2,-227.1,-193.8,-10.5,-189.6,-74.4,0,0,3120,0,168,0,
1.7367,-26.4,61.2,-221.1,-182.4,-9.9,-185.4,-65.7,0,0,3126,0,169,0,
1.7400,-26.1,79.5,-210.3,-159.9,-3.6,-186.3,-44.1,0,0,3132,0,170,0,
1.7433,-18.6,70.2,-213.9,-170.1,-8.4,-186.3,-52.2,0,0,3138,0,171,0,
1.7467,-24.0,64.5,-225.9,-189.9,-12.0,-189.0,-67.2,0,0,3144,0,172,0,
1.7500,-19.8,44.7,-231.0,-192.0,-7.8,-187.5,-72.0,0,0,3150,0,173,0,
1.7533,-27.9,57.6,-220.5,-175.2,-2.7,-180.3,-62.1,0,0,3156,0,174,0,
1.7567,-18.9,89.4,-203.1,-151.2,6.6,-171.3,-46.8,0,0,3162,0,175,0,
1.7600,-14.7,75.0,-210.0,-163.2,2.7,-173.4,-51.0,0,0,3168,0,176,0,
1.7633,-19.2,53.7,-225.0,-186.3,-8.4,-184.8,-64.2,0,0,3174,0,177,0,
1.7667,-24.3,57.9,-223.2,-185.1,-6.3,-185.1,-62.7,0,0,3180,0,178,0,
1.7700,-21.9,71.4,-213.0,-174.3,-2.1,-179.1,-52.2,0,0,3186,0,179,0,
1.7733,-17.1,89.7,-201.9,-155.4,4.5,-176.1,-45.9,0,0,3192,0,180,0,
1.7767,-14.7,95.4,-208.2,-164.7,-2.7,-182.1,-48.6,0,0,3198,0,181,0,
1.7800,-14.7,63.3,-224.4,-187.5,-10.2,-190.2,-65.4,0,0,3204,0,182,0,
1.7833,-15.6,52.5,-227.1,-186.6,-5.7,-182.7,-60.3,0,0,3210,0,183,0,
1.7867,-16.2,68.1,-218.7,-172.5,-3.6,-186.9,-57.3,0,0,3216,0,184,0,
1.7900,-23.7,89.7,-207.6,-150.6,-1.2,-186.6,-48.0,0,0,3222,0,185,0,
1.7933,-21.6,72.9,-221.7,-169.5,-8.4,-192.9,-59.7,0,0,3228,0,186,0,
1.7967,-22.2,44.7,-234.3,-194.1,-15.9,-197.4,-79.2,0,0,3234,0,187,0,
1.8000,-22.8,50.4,-230.4,-192.0,-17.7,-198.9,-74.4,0,0,3240,0,188,0,
1.8033,-26.4,54.6,-228.9,-182.4,-10.8,-196.2,-64.2,0,0,3246,0,189,0,
1.8067,-36.9,77.1,-217.8,-159.6,-7.2,-197.4,-59.4,0,0,3252,0,190,0,
1.8100,-23.4,62.7,-233.4,-172.8,-8.1,-194.7,-66.3,0,0,3258,0,191,0,
1.8133,-22.5,47.7,-235.5,-191.1,-16.5,-198.6,-77.7,0,0,3264,0,192,0,
1.8167,-25.2,52.8,-238.8,-194.1,-11.4,-192.0,-74.7,0,0,3270,0,193,0,
1.8200,-27.6,46.8,-232.5,-180.0,-7.5,-191.1,-73.2,0,0,3276,0,194,0,
1.8233,-27.6,65.4,-223.2,-157.5,-3.6,-189.3,-59.7,0,0,3282,0,195,0,
1.8267,-23.7,60.0,-228.9,-168.0,-10.5,-193.2,-62.4,0,0,3288,0,196,0,
1.8300,-23.1,49.2,-238.8,-196.2,-15.9,-189.9,-76.2,0,0,3294,0,197,0,
1.8333,-20.1,58.2,-237.0,-191.1,-14.7,-194.1,-68.7,0,0,3300,0,198,0,
1.8367,-21.0,71.1,-220.5,-174.3,-6.3,-189.9,-63.6,0,0,3306,0,199,0,
1.8400,-30.9,79.5,-219.3,-155.1,-1.8,-184.2,-48.6,0,0,3312,0,200,0,
1.8433,-31.2,63.0,-230.7,-173.7,-8.7,-187.8,-60.9,0,0,3318,0,201,0,
1.8467,-18.9,39.3,-241.2,-194.4,-12.9,-198.0,-70.5,0,0,3324,0,202,0,
1.8500,-27.0,53.1,-237.9,-200.1,-13.8,-195.9,-72.3,0,0,3330,0,203,0,
1.8533,-25.8,64.8,-237.6,-188.7,-6.9,-195.3,-67.2,0,0,3336,0,204,0,
1.8567,-31.8,91.2,-223.5,-165.6,-2.7,-191.1,-53.4,0,0,3342,0,205,0,
1.8600,-29.4,60.3,-240.6,-183.0,-11.4,-198.0,-71.1,0,0,3348,0,206,0,
1.8633,-23.7,48.3,-245.1,-202.8,-12.6,-195.3,-75.3,0,0,3354,0,207,0,
1.8667,-22.5,52.2,-236.7,-200.7,-13.5,-191.7,-75.0,0,0,3360,0,208,0,
1.8700,-38.1,55.5,-240.6,-194.1,-14.4,-195.6,-75.9,0,0,3366,0,209,0,
1.8733,-37.2,70.5,-221.4,-166.2,-7.8,-195.3,-60.0,0,0,3372,0,210,0,
1.8767,-31.5,43.8,-243.6,-183.6,-11.4,-195.0,-62.1,0,0,3378,0,211,0,
1.8800,-23.7,37.2,-245.1,-200.1,-13.5,-196.5,-80.4,0,0,3384,0,212,0,
1.8833,-28.8,40.5,-245.1,-206.1,-12.3,-193.5,-74.1,0,0,3390,0,213,0,
1.8867,-29.7,63.0,-229.2,-183.9,-5.1,-189.9,-62.4,0,0,3396,0,214,0,
1.8900,-35.1,74.4,-222.6,-166.5,-6.3,-189.9,-51.3,0,0,3402,0,215,0,
1.8933,-26.7,63.6,-228.0,-175.2,-6.3,-190.8,-60.0,0,0,3408,0,216,0,
1.8967,-25.2,45.6,-237.6,-196.2,-13.2,-191.4,-70.5,0,0,3414,0,217,0,
1.9000,-34.8,52.8,-232.8,-196.5,-8.1,-192.6,-70.8,0,0,3420,0,218,0,
1.9033,-25.5,60.0,-228.3,-188.1,-6.9,-187.8,-63.0,0,0,3426,0,219,0,
1.9067,-31.8,77.1,-213.9,-161.4,-0.6,-185.7,-44.7,0,0,3432,0,220,0,
1.9100,-39.3,60.6,-232.2,-179.7,-8.4,-191.7,-62.4,0,0,3438,0,221,0,
1.9133,-31.2,30.0,-247.2,-200.7,-17.1,-204.3,-77.1,0,0,3444,0,222,0,
1.9167,-37.5,27.0,-243.6,-198.9,-16.2,-200.7,-84.3,0,0,3450,0,223,0,
1.9200,-37.5,51.0,-231.3,-182.1,-10.5,-197.4,-69.9,0,0,3456,0,224,0,
1.9233,-43.8,78.6,-218.1,-154.2,-2.4,-192.3,-53.4,0,0,3462,0,225,0,
1.9267,-31.5,60.3,-234.9,-174.6,-5.7,-192.3,-54.0,0,0,3468,0,226,0,
1.9300,-35.1,40.2,-248.7,-204.6,-17.7,-198.3,-74.1,0,0,3474,0,227,0,
1.9333,-48.0,38.4,-245.7,-204.6,-15.9,-201.6,-75.0,0,0,3480,0,228,0,
1.9367,-51.9,46.2,-242.7,-193.8,-9.6,-197.4,-62.7,0,0,3486,0,229,0,
1.9400,-58.2,73.2,-227.1,-164.7,2.1,-184.8,-43.8,0,0,3492,0,230,0,
1.9433,-39.3,53.4,-240.6,-181.8,-4.2,-191.1,-42.0,0,0,3498,0,231,0,
1.9467,-43.2,27.0,-257.1,-207.3,-12.6,-196.2,-55.8,0,0,3504,0,232,0,
1.9500,-51.3,31.8,-255.0,-207.6,-11.4,-192.9,-52.5,0,0,3510,0,233,0,
1.9533,-56.7,53.7,-240.6,-185.7,0.6,-189.6,-46.5,0,0,3516,0,234,0,
1.9567,-61.8,91.5,-227.7,-157.8,8.1,-184.8,-28.5,0,0,3522,0,235,0,
1.9600,-64.2,56.7,-248.1,-183.0,-3.6,-189.3,-40.2,0,0,3528,0,236,0,
1.9633,-62.1,31.8,-262.2,-216.0,-14.4,-193.8,-55.8,0,0,3534,0,237,0,
1.9667,-59.1,43.2,-256.2,-207.9,-7.8,-186.3,-41.1,0,0,3540,0,238,0,
1.9700,-66.9,48.6,-249.6,-194.7,-3.6,-187.2,-35.7,0,0,3546,0,239,0,
1.9733,-82.8,74.1,-236.4,-164.4,0.9,-189.0,-37.5,0,0,3552,0,240,0,
1.9767,-71.4,56.4,-254.7,-189.3,-7.2,-195.3,-49.5,0,0,3558,0,241,0,
1.9800,-61.2,30.3,-264.3,-211.8,-13.8,-195.6,-54.9,0,0,3564,0,242,0,
1.9833,-68.1,43.2,-257.4,-207.6,-9.0,-190.5,-56.4,0,0,3570,0,243,0,
1.9867,-81.3,52.5,-244.8,-187.8,-5.7,-194.7,-54.9,0,0,3576,0,244,0,
1.9900,-85.8,69.9,-237.0,-168.9,-0.3,-187.5,-40.8,0,0,3582,0,245,0,
1.9933,-74.7,46.8,-249.9,-187.5,-8.7,-192.0,-46.5,0,0,3588,0,246,0,
1.9967,-79.8,28.8,-265.5,-212.7,-15.0,-199.5,-66.6,0,0,3594,0,247,0,
2.0000,-73.2,34.5,-253.8,-207.6,-11.7,-194.7,-63.6,0,0,3600,0,248,0,
2.0033,-64.2,60.9,-240.6,-186.6,-3.0,-186.9,-41.7,0,0,3606,0,249,0,
2.0067,-72.0,89.4,-223.8,-158.4,-0.9,-183.6,-27.9,0,0,3612,0,250,0,
2.0100,-69.3,51.3,-249.6,-182.7,-8.4,-191.7,-49.2,0,0,3618,0,251,0,
2.0133,-69.9,33.0,-262.2,-212.4,-18.6,-198.6,-69.6,0,0,3624,0,252,0,
2.0167,-71.4,24.6,-261.6,-206.4,-15.9,-196.5,-65.1,0,0,3630,0,253,0,
2.0200,-69.6,42.3,-247.8,-191.1,-8.4,-192.6,-54.0,0,0,3636,0,254,0,
2.0233,-71.1,60.6,-242.4,-164.7,-3.3,-187.5,-47.1,0,0,3642,0,255,0,
2.0267,-65.7,42.3,-260.1,-190.2,-12.0,-194.4,-60.0,0,0,3648,0,0,0,
2.0300,-57.0,26.7,-270.0,-211.8,-15.3,-192.0,-64.8,0,0,3654,0,1,0,
2.0333,-63.3,38.1,-262.2,-211.5,-18.0,-193.2,-67.2,0,0,3660,0,2,0,
2.0367,-67.8,47.1,-252.9,-195.0,-12.9,-192.0,-55.8,0,0,3666,0,3,0,
2.0400,-71.4,62.4,-247.5,-173.4,-6.6,-188.4,-41.1,0,0,3672,0,4,0,
2.0433,-70.2,44.1,-261.6,-193.5,-17.7,-198.0,-53.7,0,0,3678,0,5,0,
2.0467,-68.1,21.6,-273.9,-218.4,-20.4,-197.4,-70.5,0,0,3684,0,6,0,
2.0500,-69.9,11.7,-270.3,-219.0,-16.5,-198.3,-70.2,0,0,3690,0,7,0,
2.0533,-69.9,33.6,-255.3,-195.6,-9.6,-197.4,-63.9,0,0,3696,0,8,0,
2.0567,-76.8,61.2,-247.8,-173.7,-4.2,-192.0,-45.3,0,0,3702,0,9,0,
2.0600,-65.1,39.3,-256.5,-187.8,-8.1,-195.3,-56.4,0,0,3708,0,10,0,
2.0633,-61.8,16.2,-269.4,-215.4,-14.7,-201.0,-73.5,0,0,3714,0,11,0,
2.0667,-65.7,10.8,-268.5,-213.9,-16.2,-199.8,-68.4,0,0,3720,0,12,0,
2.0700,-76.5,27.3,-257.4,-198.9,-14.4,-204.6,-66.3,0,0,3726,0,13,0,
2.0733,-82.5,57.3,-243.9,-171.6,-8.7,-199.5,-59.7,0,0,3732,0,14,0,
2.0767,-83.1,15.9,-267.3,-193.5,-14.7,-209.4,-70.5,0,0,3738,0,15,0,
2.0800,-72.0,3.3,-270.6,-210.9,-21.9,-214.5,-78.3,0,0,3744,0,16,0,
2.0833,-69.9,22.5,-258.0,-205.2,-18.3,-204.6,-66.6,0,0,3750,0,17,0,
2.0867,-59.7,38.1,-251.4,-192.0,-8.7,-194.7,-66.6,0,0,3756,0,18,0,
2.0900,-70.8,56.7,-240.6,-170.7,-2.7,-192.3,-54.6,0,0,3762,0,19,0,
2.0933,-67.2,44.4,-253.5,-189.3,-10.8,-199.8,-64.8,0,0,3768,0,20,0,
2.0967,-57.6,29.1,-253.8,-204.0,-13.8,-192.3,-54.3,0,0,3774,0,21,0,
2.1000,-65.7,31.5,-255.6,-203.1,-15.6,-194.1,-63.9,0,0,3780,0,22,0,
2.1033,-60.6,41.7,-242.1,-191.7,-12.0,-190.8,-52.2,0,0,3786,0,23,0,
2.1067,-54.6,59.1,-233.7,-170.7,0.6,-179.1,-37.8,0,0,3792,0,24,0,
2.1100,-49.5,52.5,-239.7,-181.2,-6.9,-189.0,-47.4,0,0,3798,0,25,0,
2.1133,-50.1,37.8,-250.8,-199.8,-13.8,-190.8,-56.1,0,0,3804,0,26,0,
2.1167,-62.4,45.3,-248.1,-203.4,-16.8,-195.3,-53.4,0,0,3810,0,27,0,
2.1200,-57.6,49.8,-243.9,-196.5,-12.3,-193.5,-52.5,0,0,3816,0,28,0,
2.1233,-60.6,65.7,-234.0,-176.1,-4.2,-186.0,-36.3,0,0,3822,0,29,0,
2.1267,-57.6,48.6,-245.4,-190.2,-8.7,-189.9,-48.6,0,0,3828,0,30,0,
2.1300,-54.3,36.3,-254.7,-205.5,-14.1,-195.3,-55.8,0,0,3834,0,31,0,
2.1333,-57.9,47.1,-249.6,-208.5,-13.2,-195.3,-53.1,0,0,3840,0,32,0,
2.1367,-61.5,40.5,-244.8,-194.7,-10.8,-191.7,-51.9,0,0,3846,0,33,0,
2.1400,-68.4,56.7,-239.1,-182.1,-3.9,-190.2,-46.2,0,0,3852,0,34,0,
2.1433,-66.0,46.5,-245.4,-192.9,-8.4,-192.6,-48.3,0,0,3858,0,35,0,
2.1467,-64.2,35.1,-248.7,-211.2,-10.8,-183.9,-51.9,0,0,3864,0,36,0,
2.1500,-63.6,35.1,-256.5,-210.9,-16.2,-193.8,-57.6,0,0,3870,0,37,0,
2.1533,-62.4,42.0,-247.5,-198.0,-13.2,-195.0,-53.4,0,0,3876,0,38,0,
2.1567,-72.0,54.9,-241.2,-180.9,-9.9,-191.7,-51.9,0,0,3882,0,39,0,
2.1600,-66.3,44.7,-248.4,-196.5,-15.3,-192.6,-54.0,0,0,3888,0,40,0,
2.1633,-62.7,18.6,-258.9,-209.7,-18.9,-200.4,-69.3,0,0,3894,0,41,0,
2.1667,-62.7,18.3,-256.2,-210.3,-15.6,-195.9,-66.3,0,0,3900,0,42,0,
2.1700,-63.3,34.8,-247.2,-199.2,-14.1,-193.5,-58.8,0,0,3906,0,43,0,
2.1733,-66.0,51.6,-235.8,-177.9,-11.4,-195.9,-53.4,0,0,3912,0,44,0,
2.1767,-64.5,36.3,-246.6,-193.5,-15.0,-195.3,-57.9,0,0,3918,0,45,0,
2.1800,-59.1,28.5,-252.6,-211.2,-21.3,-201.0,-73.5,0,0,3924,0,46,0,
2.1833,-56.7,21.6,-249.6,-207.3,-18.9,-196.8,-68.1,0,0,3930,0,47,0,
2.1867,-66.0,26.7,-249.6,-199.8,-15.6,-196.5,-70.8,0,0,3936,0,48,0,
2.1900,-71.4,42.9,-243.6,-184.2,-10.8,-192.3,-59.7,0,0,3942,0,49,0,
2.1933,-65.4,45.3,-246.6,-192.9,-19.5,-198.0,-57.6,0,0,3948,0,50,0,
2.1967,-58.2,24.0,-255.0,-208.8,-19.5,-195.0,-52.8,0,0,3954,0,51,0,
2.2000,-56.4,24.0,-254.7,-209.7,-18.3,-195.0,-57.6,0,0,3960,0,52,0,
2.2033,-57.9,35.4,-242.7,-201.0,-15.3,-188.1,-49.5,0,0,3966,0,53,0,
2.2067,-60.6,58.5,-235.5,-184.2,-12.0,-188.4,-48.0,0,0,3972,0,54,0,
2.2100,-54.6,50.7,-240.9,-193.2,-16.8,-189.6,-53.1,0,0,3978,0,55,0,
2.2133,-50.1,24.3,-254.1,-205.8,-17.4,-192.9,-56.7,0,0,3984,0,56,0,
2.2167,-55.8,27.3,-254.4,-213.0,-21.3,-194.1,-59.1,0,0,3990,0,57,0,
2.2200,-51.6,45.3,-242.1,-198.9,-13.2,-189.0,-52.2,0,0,3996,0,58,0,
2.2233,-62.7,60.0,-237.3,-180.3,-6.6,-183.0,-42.6,0,0,4002,0,59,0,
2.2267,-51.6,57.9,-246.6,-190.8,-11.7,-184.2,-45.9,0,0,4008,0,60,0,
2.2300,-54.6,39.0,-256.2,-208.2,-10.5,-178.2,-46.5,0,0,4014,0,61,0,
2.2333,-57.6,34.5,-261.3,-212.7,-16.8,-185.1,-50.4,0,0,4020,0,62,0,
2.2367,-62.1,35.4,-258.3,-201.6,-12.0,-186.0,-48.6,0,0,4026,0,63,0,
2.2400,-61.5,48.6,-248.4,-185.4,-7.5,-186.0,-43.8,0,0,4032,0,64,0,
2.2433,-55.8,41.1,-250.5,-194.4,-11.7,-187.8,-47.4,0,0,4038,0,65,0,
2.2467,-45.9,24.3,-258.3,-207.6,-15.6,-185.7,-55.2,0,0,4044,0,66,0,
2.2500,-50.7,29.1,-253.5,-210.9,-15.6,-183.3,-55.2,0,0,4050,0,67,0,
2.2533,-52.2,38.7,-247.2,-197.4,-12.9,-184.2,-51.3,0,0,4056,0,68,0,
2.2567,-50.7,55.8,-234.9,-171.9,-6.9,-178.2,-36.9,0,0,4062,0,69,0,
2.2600,-47.7,57.0,-243.9,-184.2,-12.3,-182.4,-47.1,0,0,4068,0,70,0,
2.2633,-51.3,39.9,-249.3,-198.6,-15.3,-184.5,-54.9,0,0,4074,0,71,0,
2.2667,-48.9,35.1,-251.7,-200.1,-16.5,-186.6,-51.9,0,0,4080,0,72,0,
2.2700,-57.0,38.1,-251.1,-195.9,-12.0,-182.1,-50.1,0,0,4086,0,73,0,
2.2733,-60.9,47.1,-244.5,-177.6,-7.2,-183.0,-46.5,0,0,4092,0,74,0,
2.2767,-60.0,30.0,-254.1,-189.3,-10.5,-182.7,-52.2,0,0,4098,0,75,0,
2.2800,-46.8,27.3,-252.9,-199.2,-16.2,-185.4,-56.7,0,0,4104,0,76,0,
2.2833,-52.5,33.9,-250.2,-200.4,-15.9,-185.7,-61.2,0,0,4110,0,77,0,
2.2867,-51.9,38.1,-247.5,-188.1,-11.7,-183.6,-55.8,0,0,4116,0,78,0,
2.2900,-60.9,46.8,-247.5,-178.2,-10.5,-184.8,-50.4,0,0,4122,0,79,0,
2.2933,-59.1,43.5,-252.9,-184.2,-12.6,-185.7,-58.2,0,0,4128,0,80,0,
2.2967,-47.1,25.8,-255.9,-200.1,-13.8,-182.1,-56.1,0,0,4134,0,81,0,
2.3000,-52.8,36.6,-252.0,-201.6,-14.7,-182.4,-60.3,0,0,4140,0,82,0,
2.3033,-55.8,45.9,-245.4,-192.9,-8.4,-177.3,-48.6,0,0,4146,0,83,0,
2.3067,-57.6,59.1,-235.8,-170.4,-3.0,-174.3,-39.6,0,0,4152,0,84,0,
2.3100,-53.7,45.3,-246.9,-183.9,-10.8,-180.3,-43.8,0,0,4158,0,85,0,
2.3133,-54.9,28.8,-255.6,-203.1,-17.4,-182.1,-48.9,0,0,4164,0,86,0,
2.3167,-57.0,40.2,-253.2,-200.7,-14.1,-182.1,-51.0,0,0,4170,0,87,0,
2.3200,-55.5,25.5,-253.2,-192.0,-10.2,-184.5,-51.6,0,0,4176,0,88,0,
2.3233,-58.8,51.6,-244.5,-173.4,-6.9,-179.7,-40.8,0,0,4182,0,89,0,
2.3267,-57.6,29.1,-254.1,-189.3,-15.3,-186.6,-52.5,0,0,4188,0,90,0,
2.3300,-54.6,22.8,-261.9,-205.8,-16.5,-186.3,-64.2,0,0,4194,0,91,0,
2.3333,-50.4,27.6,-258.6,-205.8,-14.1,-181.5,-56.1,0,0,4200,0,92,0,
2.3367,-57.6,33.6,-250.5,-193.8,-13.2,-184.8,-54.9,0,0,4206,0,93,0,
2.3400,-61.2,56.1,-241.5,-178.2,-10.2,-180.0,-44.1,0,0,4212,0,94,0,
2.3433,-47.4,39.0,-249.9,-181.2,-11.1,-177.9,-40.5,0,0,4218,0,95,0,
2.3467,-45.9,30.0,-259.2,-203.1,-19.5,-183.0,-50.4,0,0,4224,0,96,0,
2.3500,-44.4,31.5,-249.6,-202.5,-18.0,-180.3,-47.4,0,0,4230,0,97,0,
2.3533,-45.3,34.5,-243.0,-188.4,-12.6,-177.3,-42.3,0,0,4236,0,98,0,
2.3567,-52.8,54.3,-233.7,-165.9,-10.5,-178.8,-45.0,0,0,4242,0,99,0,
2.3600,-52.5,38.4,-245.4,-182.4,-16.8,-192.0,-59.7,0,0,4248,0,100,0,
2.3633,-49.2,23.7,-254.7,-194.7,-18.0,-187.5,-67.8,0,0,4254,0,101,0,
2.3667,-47.4,25.8,-253.8,-198.9,-16.2,-186.3,-60.3,0,0,4260,0,102,0,
2.3700,-58.8,30.9,-251.7,-191.1,-17.4,-189.3,-60.6,0,0,4266,0,103,0,
2.3733,-60.0,58.2,-234.0,-164.7,-6.9,-181.2,-47.7,0,0,4272,0,104,0,
2.3767,-51.9,41.7,-240.3,-174.3,-11.4,-182.1,-51.3,0,0,4278,0,105,0,
2.3800,-47.1,24.3,-255.0,-198.0,-14.4,-181.8,-57.0,0,0,4284,0,106,0,
2.3833,-51.9,16.5,-255.0,-200.4,-15.6,-185.1,-60.9,0,0,4290,0,107,0,
2.3867,-54.6,20.4,-252.3,-190.8,-10.8,-185.4,-53.7,0,0,4296,0,108,0,
2.3900,-56.4,50.7,-237.0,-169.5,-6.0,-176.1,-41.1,0,0,4302,0,109,0,
2.3933,-56.4,33.9,-252.6,-186.6,-10.5,-180.0,-52.5,0,0,4308,0,110,0,
2.3967,-46.8,24.9,-261.0,-201.0,-13.2,-180.9,-54.6,0,0,4314,0,111,0,
2.4000,-54.3,19.5,-263.7,-202.2,-14.7,-182.7,-58.8,0,0,4320,0,112,0,
2.4033,-44.7,39.6,-251.1,-189.0,-8.4,-174.3,-52.2,0,0,4326,0,113,0,
2.4067,-46.5,59.4,-240.3,-167.1,-6.6,-171.6,-33.6,0,0,4332,0,114,0,
2.4100,-46.2,54.0,-248.7,-183.3,-14.1,-179.4,-42.0,0,0,4338,0,115,0,
2.4133,-46.8,27.0,-259.2,-201.6,-21.3,-186.0,-55.2,0,0,4344,0,116,0,
2.4167,-46.2,17.7,-255.9,-203.4,-16.2,-182.1,-52.5,0,0,4350,0,117,0,
2.4200,-46.2,31.2,-249.9,-189.6,-13.5,-181.2,-45.9,0,0,4356,0,118,0,
2.4233,-46.2,50.4,-237.6,-167.7,-4.5,-178.2,-31.5,0,0,4362,0,119,0,
2.4267,-45.6,43.8,-243.9,-182.7,-12.3,-180.6,-36.0,0,0,4368,0,120,0,
2.4300,-39.9,41.4,-250.5,-201.0,-12.3,-179.7,-46.8,0,0,4374,0,121,0,
2.4333,-52.5,42.6,-246.0,-202.8,-16.8,-185.1,-47.7,0,0,4380,0,122,0,
2.4367,-51.9,51.0,-239.1,-189.3,-8.1,-178.8,-37.8,0,0,4386,0,123,0,
2.4400,-56.4,48.0,-237.0,-173.7,-3.9,-177.0,-29.4,0,0,4392,0,124,0,
2.4433,-45.3,38.7,-243.9,-181.5,-8.4,-178.2,-33.3,0,0,4398,0,125,0,
2.4467,-44.1,24.9,-255.0,-198.9,-11.7,-180.3,-44.1,0,0,4404,0,126,0,
2.4500,-45.9,30.9,-249.3,-200.7,-12.0,-181.8,-45.3,0,0,4410,0,127,0,
2.4533,-56.4,38.7,-247.8,-191.7,-9.0,-182.4,-42.0,0,0,4416,0,128,0,
2.4567,-65.4,49.5,-242.1,-171.0,-7.5,-181.5,-37.8,0,0,4422,0,129,0,
2.4600,-66.0,27.0,-256.2,-185.7,-13.8,-190.5,-53.7,0,0,4428,0,130,0,
2.4633,-63.3,11.1,-264.9,-208.2,-18.0,-190.2,-57.3,0,0,4434,0,131,0,
2.4667,-64.8,24.9,-252.0,-201.9,-14.4,-186.9,-58.5,0,0,4440,0,132,0,
2.4700,-65.7,45.0,-243.0,-190.2,-8.7,-186.0,-46.5,0,0,4446,0,133,0,
2.4733,-67.5,44.4,-242.7,-177.6,-4.8,-183.0,-39.6,0,0,4452,0,134,0,
2.4767,-58.2,45.0,-245.7,-187.8,-10.5,-185.7,-44.1,0,0,4458,0,135,0,
2.4800,-41.7,34.5,-251.4,-205.5,-12.3,-182.7,-51.0,0,0,4464,0,136,0,
2.4833,-46.2,33.9,-254.7,-204.0,-11.7,-184.8,-51.9,0,0,4470,0,137,0,
2.4867,-52.8,38.1,-249.0,-194.4,-5.7,-183.6,-45.3,0,0,4476,0,138,0,
2.4900,-53.1,49.8,-246.6,-178.2,-2.1,-184.2,-40.5,0,0,4482,0,139,0,
2.4933,-53.4,39.6,-258.3,-191.4,-6.9,-188.7,-56.1,0,0,4488,0,140,0,
2.4967,-50.1,28.5,-260.4,-209.7,-9.0,-194.7,-63.6,0,0,4494,0,141,0,
2.5000,-46.5,37.8,-260.4,-210.9,-12.0,-191.1,-64.2,0,0,4500,0,142,0,
2.5033,-45.0,41.1,-249.9,-194.1,-10.2,-187.5,-51.6,0,0,4506,0,143,0,
2.5067,-51.3,50.1,-244.2,-177.3,-8.7,-189.9,-48.6,0,0,4512,0,144,0,
2.5100,-43.5,31.5,-255.6,-186.3,-9.3,-192.6,-59.4,0,0,4518,0,145,0,
2.5133,-38.7,21.9,-257.4,-201.0,-13.8,-190.5,-66.6,0,0,4524,0,146,0,
2.5167,-42.3,23.1,-255.0,-204.6,-13.2,-195.3,-64.5,0,0,4530,0,147,0,
2.5200,-41.4,39.0,-249.6,-193.5,-11.1,-195.0,-61.5,0,0,4536,0,148,0,
2.5233,-41.1,54.3,-237.0,-176.4,-6.6,-188.1,-51.9,0,0,4542,0,149,0,
2.5267,-34.5,31.5,-249.0,-185.7,-12.3,-194.7,-53.4,0,0,4548,0,150,0,
2.5300,-36.0,14.7,-260.7,-207.0,-18.6,-200.1,-63.9,0,0,4554,0,151,0,
2.5333,-38.4,11.7,-257.7,-202.2,-16.2,-197.1,-65.7,0,0,4560,0,152,0,
2.5367,-42.9,35.1,-245.1,-189.6,-9.0,-190.2,-54.6,0,0,4566,0,153,0,
2.5400,-49.8,55.8,-236.7,-169.5,-4.8,-189.6,-48.9,0,0,4572,0,154,0,
2.5433,-46.8,35.7,-254.4,-187.5,-12.6,-194.1,-53.7,0,0,4578,0,155,0,
2.5467,-39.0,28.5,-256.5,-205.2,-13.8,-190.8,-59.4,0,0,4584,0,156,0,
2.5500,-41.4,33.9,-254.4,-209.1,-14.7,-189.9,-60.3,0,0,4590,0,157,0,
2.5533,-41.7,33.6,-247.2,-194.1,-8.4,-186.9,-53.7,0,0,4596,0,158,0,
2.5567,-48.0,48.9,-243.0,-174.9,0.3,-185.7,-47.1,0,0,4602,0,159,0,
2.5600,-41.4,41.1,-248.1,-189.0,-6.0,-188.7,-54.3,0,0,4608,0,160,0,
2.5633,-38.1,21.6,-259.2,-210.6,-12.6,-194.4,-66.0,0,0,4614,0,161,0,
2.5667,-41.7,17.1,-260.7,-211.5,-11.4,-192.9,-66.9,0,0,4620,0,162,0,
2.5700,-43.5,35.7,-252.0,-196.5,-6.3,-186.9,-57.6,0,0,4626,0,163,0,
2.5733,-47.4,52.2,-243.3,-179.7,-2.7,-186.0,-50.4,0,0,4632,0,164,0,
2.5767,-45.9,39.0,-254.7,-189.3,-12.6,-192.6,-54.9,0,0,4638,0,165,0,
2.5800,-32.1,28.8,-258.3,-207.9,-15.9,-196.2,-62.1,0,0,4644,0,166,0,
2.5833,-38.1,34.2,-260.4,-209.7,-18.6,-193.8,-62.7,0,0,4650,0,167,0,
2.5867,-41.1,36.6,-250.8,-197.4,-16.8,-194.7,-55.2,0,0,4656,0,168,0,
2.5900,-44.4,49.2,-246.6,-176.1,-9.9,-192.0,-48.3,0,0,4662,0,169,0,
2.5933,-34.8,40.5,-251.1,-187.5,-11.1,-196.8,-56.1,0,0,4668,0,170,0,
2.5967,-31.5,30.3,-255.6,-201.0,-15.9,-194.4,-56.7,0,0,4674,0,171,0,
2.6000,-31.5,28.5,-249.0,-201.3,-16.2,-195.9,-58.8,0,0,4680,0,172,0,
2.6033,-33.9,26.4,-248.4,-186.9,-9.9,-192.9,-54.6,0,0,4686,0,173,0,
2.6067,-30.6,55.5,-234.9,-169.2,-10.8,-192.3,-46.2,0,0,4692,0,174,0,
2.6100,-17.1,39.3,-243.6,-180.3,-10.2,-192.0,-45.6,0,0,4698,0,175,0,
2.6133,-28.8,22.2,-254.4,-204.6,-20.4,-200.4,-64.8,0,0,4704,0,176,0,
2.6167,-29.7,22.2,-251.7,-198.9,-16.2,-195.9,-68.4,0,0,4710,0,177,0,
2.6200,-46.2,27.9,-250.8,-191.7,-13.5,-201.0,-71.7,0,0,4716,0,178,0,
2.6233,-26.1,58.5,-226.5,-165.6,-5.1,-188.7,-45.3,0,0,4722,0,179,0,
2.6267,-9.9,55.8,-234.9,-177.0,-6.0,-184.2,-40.2,0,0,4728,0,180,0,
2.6300,0.6,43.5,-238.8,-195.3,-13.5,-184.2,-39.9,0,0,4734,0,181,0,
2.6333,-14.1,37.5,-242.1,-200.1,-13.5,-183.9,-50.1,0,0,4740,0,182,0,
2.6367,-7.8,54.9,-230.4,-185.1,-10.2,-184.2,-41.7,0,0,4746,0,183,0,
2.6400,-18.6,78.9,-223.2,-169.8,-9.9,-184.5,-40.5,0,0,4752,0,184,0,
2.6433,-8.4,61.8,-233.4,-179.4,-9.6,-183.6,-40.2,0,0,4758,0,185,0,
2.6467,-3.9,35.1,-249.6,-201.6,-12.6,-182.7,-46.5,0,0,4764,0,186,0,
2.6500,-7.8,51.3,-237.6,-199.2,-8.7,-180.6,-49.8,0,0,4770,0,187,0,
2.6533,-11.7,59.4,-234.3,-189.6,-6.0,-177.9,-43.8,0,0,4776,0,188,0,
2.6567,-27.0,75.0,-228.3,-172.2,-0.9,-175.8,-33.0,0,0,4782,0,189,0,
2.6600,-12.9,58.5,-237.6,-181.5,-0.6,-177.0,-38.7,0,0,4788,0,190,0,
2.6633,-8.7,43.8,-241.5,-195.0,-3.6,-177.3,-46.8,0,0,4794,0,191,0,
2.6667,-16.8,42.3,-245.4,-204.0,-5.7,-182.7,-51.0,0,0,4800,0,192,0,
2.6700,-22.2,51.0,-243.0,-195.3,-4.2,-186.6,-48.9,0,0,4806,0,193,0,
2.6733,-33.9,70.2,-230.4,-176.1,-2.1,-179.4,-35.7,0,0,4812,0,194,0,
2.6767,-20.1,58.8,-241.8,-186.9,-3.6,-179.4,-38.1,0,0,4818,0,195,0,
2.6800,-31.8,60.0,-241.8,-208.5,-11.4,-180.6,-57.6,0,0,4824,0,196,0,
2.6833,-28.2,33.6,-254.7,-208.8,-9.6,-185.4,-56.1,0,0,4830,0,197,0,
2.6867,-41.4,40.5,-241.5,-196.5,-7.2,-188.1,-52.5,0,0,4836,0,198,0,
2.6900,-39.3,50.4,-237.3,-172.8,-1.8,-180.0,-42.3,0,0,4842,0,199,0,
2.6933,-28.2,35.7,-246.6,-186.0,-11.1,-189.6,-57.3,0,0,4848,0,200,0,
2.6967,-34.5,14.7,-259.8,-205.5,-14.7,-193.2,-64.8,0,0,4854,0,201,0,
2.7000,-44.4,26.4,-251.4,-206.7,-18.3,-197.4,-64.2,0,0,4860,0,202,0,
2.7033,-34.8,38.7,-245.7,-191.4,-3.9,-183.9,-64.2,0,0,4866,0,203,0,
2.7067,-54.3,71.1,-216.6,-165.0,-3.3,-184.8,-45.0,0,0,4872,0,204,0,
2.7100,-40.2,53.1,-233.4,-177.3,-11.1,-189.0,-66.0,0,0,4878,0,205,0,
2.7133,-30.9,29.1,-243.9,-201.3,-12.0,-197.1,-74.7,0,0,4884,0,206,0,
2.7167,-43.8,57.3,-237.0,-198.9,-12.9,-185.4,-68.1,0,0,4890,0,207,0,
2.7200,-39.6,43.2,-241.8,-191.4,-10.2,-187.2,-62.7,0,0,4896,0,208,0,
2.7233,-49.2,54.0,-237.0,-169.2,-10.8,-190.8,-53.1,0,0,4902,0,209,0,
2.7267,-43.8,40.5,-232.5,-178.5,-14.7,-190.8,-51.0,0,0,4908,0,210,0,
2.7300,-31.8,26.1,-249.6,-200.4,-24.6,-196.8,-65.1,0,0,4914,0,211,0,
2.7333,-45.9,45.3,-243.6,-198.9,-16.5,-186.3,-63.6,0,0,4920,0,212,0,
2.7367,-42.6,47.7,-232.5,-182.7,-15.3,-191.4,-47.4,0,0,4926,0,213,0,
2.7400,-35.7,66.6,-231.0,-165.3,-9.0,-186.9,-52.2,0,0,4932,0,214,0,
2.7433,-45.9,45.6,-240.6,-182.1,-17.4,-192.0,-62.1,0,0,4938,0,215,0,
2.7467,-48.3,46.2,-240.9,-201.3,-20.7,-190.5,-68.7,0,0,4944,0,216,0,
2.7500,-39.6,59.7,-231.9,-195.9,-21.0,-201.0,-65.7,0,0,4950,0,217,0,
2.7533,-30.9,66.6,-229.8,-185.4,-11.4,-184.2,-53.7,0,0,4956,0,218,0,
2.7567,-45.0,83.1,-217.2,-162.3,-6.9,-177.0,-47.4,0,0,4962,0,219,0,
2.7600,-36.6,58.8,-231.9,-177.6,-14.1,-193.8,-52.5,0,0,4968,0,220,0,
2.7633,-30.3,23.7,-252.0,-204.6,-18.6,-186.3,-64.5,0,0,4974,0,221,0,
2.7667,-34.2,43.5,-234.3,-196.5,-14.7,-189.9,-55.8,0,0,4980,0,222,0,
2.7700,-27.9,46.5,-230.1,-184.8,-8.4,-180.9,-50.7,0,0,4986,0,223,0,
2.7733,-29.4,79.5,-221.7,-163.5,-3.9,-186.9,-45.3,0,0,4992,0,224,0,
2.7767,-43.8,54.3,-216.0,-175.5,-10.8,-187.2,-59.1,0,0,4998,0,225,0,
2.7800,-36.3,54.6,-242.1,-209.1,-19.5,-191.7,-64.5,0,0,5004,0,226,0,
2.7833,-34.2,32.4,-243.9,-206.1,-13.2,-189.9,-65.7,0,0,5010,0,227,0,
2.7867,-31.8,54.3,-227.4,-184.5,-9.3,-188.4,-54.3,0,0,5016,0,228,0,
2.7900,-36.6,71.1,-219.3,-165.6,-4.2,-185.4,-45.9,0,0,5022,0,229,0,
2.7933,-30.6,48.0,-237.6,-184.5,-9.6,-186.0,-55.2,0,0,5028,0,230,0,
2.7967,-33.6,25.2,-246.3,-205.8,-19.8,-202.5,-76.2,0,0,5034,0,231,0,
2.8000,-40.8,33.6,-246.9,-205.8,-19.8,-200.1,-67.5,0,0,5040,0,232,0,
2.8033,-37.5,46.2,-237.0,-188.4,-10.8,-191.1,-59.4,0,0,5046,0,233,0,
2.8067,-41.7,78.0,-217.2,-166.2,-9.0,-189.0,-53.7,0,0,5052,0,234,0,
2.8100,-37.8,56.4,-227.4,-184.5,-12.6,-192.3,-59.1,0,0,5058,0,235,0,
2.8133,-25.5,39.6,-236.7,-206.1,-16.8,-193.2,-59.7,0,0,5064,0,236,0,
2.8167,-27.9,60.0,-241.2,-197.7,-14.1,-190.8,-61.2,0,0,5070,0,237,0,
2.8200,-36.0,52.2,-235.5,-189.9,-12.3,-183.9,-56.7,0,0,5076,0,238,0,
2.8233,-30.9,75.9,-218.4,-160.5,-2.1,-184.8,-45.9,0,0,5082,0,239,0,
2.8267,-31.5,55.8,-232.5,-178.8,-4.5,-179.7,-46.5,0,0,5088,0,240,0,
2.8300,-19.8,30.3,-244.2,-202.8,-13.8,-183.9,-60.6,0,0,5094,0,241,0,
2.8333,-22.8,54.3,-234.9,-201.0,-9.3,-184.5,-55.2,0,0,5100,0,242,0,
2.8367,-25.2,63.9,-231.3,-188.7,-8.4,-190.5,-48.9,0,0,5106,0,243,0,
2.8400,-45.6,87.6,-218.1,-161.4,-0.6,-184.5,-35.7,0,0,5112,0,244,0,
2.8433,-29.1,67.8,-228.6,-179.4,-6.9,-188.1,-51.9,0,0,5118,0,245,0,
2.8467,-19.5,44.1,-237.3,-201.9,-15.0,-196.5,-66.6,0,0,5124,0,246,0,
2.8500,-24.0,42.9,-236.1,-201.0,-14.1,-192.0,-60.9,0,0,5130,0,247,0,
2.8533,-29.4,64.5,-226.8,-180.3,-3.3,-185.7,-44.7,0,0,5136,0,248,0,
2.8567,-37.8,85.5,-214.8,-155.7,0.0,-185.1,-33.6,0,0,5142,0,249,0,
2.8600,-29.7,55.2,-231.6,-176.7,-9.0,-191.4,-51.9,0,0,5148,0,250,0,
2.8633,-31.5,38.1,-240.3,-192.6,-10.2,-190.8,-58.5,0,0,5154,0,251,0,
2.8667,-36.3,51.9,-233.7,-193.2,-12.3,-187.5,-58.2,0,0,5160,0,252,0,
2.8700,-39.0,61.5,-225.3,-181.8,-6.6,-189.6,-49.8,0,0,5166,0,253,0,
2.8733,-45.9,69.0,-224.1,-160.5,-10.2,-194.1,-52.2,0,0,5172,0,254,0,
2.8767,-37.8,52.2,-231.9,-177.9,-14.1,-198.3,-54.6,0,0,5178,0,255,0,
2.8800,-39.6,33.3,-242.7,-202.5,-17.1,-193.8,-68.4,0,0,5184,0,0,0,
2.8833,-32.7,34.8,-235.2,-199.8,-15.3,-197.4,-62.1,0,0,5190,0,1,0,
2.8867,-47.7,57.0,-225.6,-180.0,-8.7,-191.1,-57.0,0,0,5196,0,2,0,
2.8900,-53.4,71.7,-216.9,-156.9,-3.0,-190.5,-43.8,0,0,5202,0,3,0,
2.8933,-43.5,65.1,-231.6,-177.0,-7.5,-193.8,-49.2,0,0,5208,0,4,0,
2.8967,-25.2,37.5,-236.7,-201.0,-15.6,-193.5,-45.6,0,0,5214,0,5,0,
2.9000,-28.2,37.5,-239.1,-200.1,-12.6,-187.5,-51.3,0,0,5220,0,6,0,
2.9033,-38.7,52.2,-228.9,-182.7,-7.5,-186.3,-49.2,0,0,5226,0,7,0,
2.9067,-47.1,66.3,-222.3,-159.0,-3.9,-184.2,-36.3,0,0,5232,0,8,0,
2.9100,-34.8,57.9,-231.0,-178.2,-10.8,-183.6,-47.1,0,0,5238,0,9,0,
2.9133,-27.6,36.0,-240.6,-202.5,-16.2,-188.4,-62.1,0,0,5244,0,10,0,
2.9167,-28.8,36.6,-243.9,-201.9,-12.9,-183.0,-59.4,0,0,5250,0,11,0,
2.9200,-34.2,54.9,-231.3,-180.0,-4.5,-180.9,-46.8,0,0,5256,0,12,0,
2.9233,-36.9,72.9,-223.8,-162.6,2.4,-176.7,-36.9,0,0,5262,0,13,0,
2.9267,-31.5,65.7,-228.9,-177.0,-8.1,-180.0,-37.2,0,0,5268,0,14,0,
2.9300,-25.8,40.8,-245.7,-203.4,-17.7,-185.1,-55.2,0,0,5274,0,15,0,
2.9333,-23.4,38.4,-236.4,-197.1,-13.5,-181.2,-52.5,0,0,5280,0,16,0,
2.9367,-31.8,56.7,-227.1,-180.3,-9.9,-179.1,-50.1,0,0,5286,0,17,0,
2.9400,-42.0,64.8,-222.9,-164.7,-10.5,-184.8,-43.2,0,0,5292,0,18,0,
2.9433,-34.5,58.8,-233.7,-180.3,-13.5,-185.7,-51.6,0,0,5298,0,19,0,
2.9467,-30.3,34.2,-238.8,-194.4,-15.9,-186.3,-58.5,0,0,5304,0,20,0,
2.9500,-27.3,36.9,-238.8,-191.7,-19.8,-186.9,-60.0,0,0,5310,0,21,0,
2.9533,-34.8,50.1,-232.8,-182.4,-16.2,-186.0,-51.0,0,0,5316,0,22,0,
2.9567,-36.9,63.6,-229.5,-165.9,-15.0,-187.5,-49.8,0,0,5322,0,23,0,
2.9600,-38.4,54.0,-231.3,-177.6,-18.6,-188.7,-54.0,0,0,5328,0,24,0,
2.9633,-33.0,24.6,-243.9,-201.6,-25.5,-194.7,-62.1,0,0,5334,0,25,0,
2.9667,-39.6,26.7,-246.0,-205.2,-26.4,-194.4,-66.0,0,0,5340,0,26,0,
2.9700,-38.1,32.7,-240.3,-195.0,-24.3,-195.3,-67.5,0,0,5346,0,27,0,
2.9733,-50.7,60.6,-226.2,-169.5,-15.9,-187.5,-51.3,0,0,5352,0,28,0,
2.9767,-30.3,53.1,-232.8,-180.3,-16.8,-189.6,-57.9,0,0,5358,0,29,0,
2.9800,-28.2,29.7,-246.3,-204.0,-23.1,-196.5,-67.2,0,0,5364,0,30,0,
2.9833,-23.1,37.2,-236.4,-203.1,-19.8,-191.4,-62.1,0,0,5370,0,31,0,
2.9867,-34.8,48.9,-232.5,-191.1,-15.0,-191.7,-54.6,0,0,5376,0,32,0,
2.9900,-36.9,64.5,-226.2,-170.1,-10.5,-186.3,-39.6,0,0,5382,0,33,0,
2.9933,-31.5,45.9,-234.6,-181.5,-14.7,-188.7,-50.7,0,0,5388,0,34,0,
2.9967,-21.6,42.9,-239.1,-201.6,-19.5,-186.0,-57.0,0,0,5394,0,35,0,
3.0000,-27.9,43.5,-238.2,-204.3,-21.9,-194.4,-59.7,0,0,5400,0,36,0,
3.0033,-32.4,50.1,-236.1,-191.4,-17.7,-186.3,-57.3,0,0,5406,0,37,0,
3.0067,-35.1,75.3,-218.4,-165.6,-11.1,-183.3,-41.4,0,0,5412,0,38,0,
3.0100,-27.9,59.1,-231.0,-179.7,-19.2,-187.8,-50.4,0,0,5418,0,39,0,
3.0133,-21.3,43.2,-241.5,-199.8,-16.5,-187.8,-49.8,0,0,5424,0,40,0,
3.0167,-22.5,54.3,-236.7,-199.2,-19.2,-189.6,-60.6,0,0,5430,0,41,0,
3.0200,-26.4,66.6,-230.1,-182.4,-13.8,-185.7,-51.0,0,0,5436,0,42,0,
3.0233,-33.9,76.5,-222.0,-163.8,-14.7,-187.8,-46.5,0,0,5442,0,43,0,
3.0267,-37.2,59.1,-234.0,-176.4,-16.8,-189.0,-52.8,0,0,5448,0,44,0,
3.0300,-30.9,25.8,-249.3,-201.6,-28.5,-195.9,-69.9,0,0,5454,0,45,0,
3.0333,-27.0,28.5,-249.3,-200.4,-22.8,-194.4,-72.9,0,0,5460,0,46,0,
3.0367,-36.0,48.6,-237.3,-186.9,-21.9,-191.4,-59.7,0,0,5466,0,47,0,
3.0400,-43.2,66.0,-222.0,-163.2,-17.1,-185.7,-52.2,0,0,5472,0,48,0,
3.0433,-28.2,59.4,-228.3,-176.4,-19.2,-184.8,-54.6,0,0,5478,0,49,0,
3.0467,-26.1,45.3,-234.3,-197.4,-22.8,-190.5,-60.6,0,0,5484,0,50,0,
3.0500,-31.2,45.9,-241.2,-201.0,-25.8,-190.5,-63.3,0,0,5490,0,51,0,
3.0533,-35.1,50.7,-232.5,-184.2,-18.9,-186.6,-56.4,0,0,5496,0,52,0,
3.0567,-42.0,70.8,-216.9,-164.4,-13.5,-180.9,-40.2,0,0,5502,0,53,0,
3.0600,-35.7,60.3,-228.3,-180.9,-17.1,-185.4,-46.8,0,0,5508,0,54,0,
3.0633,-28.5,46.5,-233.4,-199.5,-21.9,-187.5,-60.0,0,0,5514,0,55,0,
3.0667,-27.9,46.8,-229.5,-196.2,-19.2,-184.8,-54.9,0,0,5520,0,56,0,
3.0700,-31.5,53.7,-228.9,-188.7,-14.7,-177.9,-44.7,0,0,5526,0,57,0,
3.0733,-33.0,73.8,-218.4,-168.3,-8.7,-175.8,-35.4,0,0,5532,0,58,0,
3.0767,-27.9,60.0,-230.1,-182.7,-12.9,-181.8,-41.7,0,0,5538,0,59,0,
3.0800,-31.5,41.1,-240.9,-205.2,-15.3,-184.8,-54.9,0,0,5544,0,60,0,
3.0833,-26.1,41.4,-237.6,-199.8,-17.7,-181.2,-46.5,0,0,5550,0,61,0,
3.0867,-35.1,49.5,-234.0,-192.3,-15.3,-180.6,-42.9,0,0,5556,0,62,0,
3.0900,-35.7,73.2,-222.3,-168.9,-9.3,-178.2,-38.7,0,0,5562,0,63,0,
3.0933,-36.9,57.9,-234.3,-187.2,-12.9,-183.3,-47.1,0,0,5568,0,64,0,
3.0967,-32.4,43.2,-241.5,-201.3,-19.8,-189.3,-55.5,0,0,5574,0,65,0,
3.1000,-42.0,30.9,-247.5,-204.3,-19.5,-192.3,-67.5,0,0,5580,0,66,0,
3.1033,-46.2,43.5,-236.4,-189.0,-19.8,-191.1,-69.3,0,0,5586,0,67,0,
3.1067,-55.8,51.3,-236.4,-171.6,-16.8,-189.6,-58.5,0,0,5592,0,68,0,
3.1100,-44.1,43.5,-238.5,-181.2,-16.5,-184.2,-54.0,0,0,5598,0,69,0,
3.1133,-34.8,33.3,-249.3,-203.7,-24.0,-191.4,-56.1,0,0,5604,0,70,0,
3.1167,-45.6,28.5,-243.6,-200.1,-21.6,-180.3,-63.0,0,0,5610,0,71,0,
3.1200,-55.2,39.9,-240.3,-190.5,-19.8,-192.6,-55.8,0,0,5616,0,72,0,
3.1233,-55.8,71.4,-224.1,-167.4,-14.1,-183.9,-41.1,0,0,5622,0,73,0,
3.1267,-53.7,63.0,-240.6,-185.7,-21.9,-189.3,-42.0,0,0,5628,0,74,0,
3.1300,-42.6,35.4,-241.8,-198.0,-20.7,-183.6,-45.0,0,0,5634,0,75,0,
3.1333,-49.5,25.5,-244.8,-200.1,-24.3,-188.1,-58.5,0,0,5640,0,76,0,
3.1367,-46.8,41.4,-237.9,-185.7,-16.2,-184.2,-48.9,0,0,5646,0,77,0,
3.1400,-50.7,75.0,-218.1,-164.1,-12.3,-177.0,-34.5,0,0,5652,0,78,0,
3.1433,-42.6,63.0,-225.9,-175.5,-14.1,-179.1,-36.9,0,0,5658,0,79,0,
3.1467,-43.8,45.0,-240.9,-197.7,-22.2,-186.3,-45.0,0,0,5664,0,80,0,
3.1500,-53.7,52.5,-242.4,-202.2,-18.6,-181.8,-50.4,0,0,5670,0,81,0,
3.1533,-44.1,53.4,-235.2,-187.2,-8.4,-171.9,-40.5,0,0,5676,0,82,0,
3.1567,-48.6,65.7,-225.6,-166.2,-7.8,-177.6,-26.4,0,0,5682,0,83,0,
3.1600,-42.9,58.5,-234.3,-179.1,-9.0,-177.3,-38.4,0,0,5688,0,84,0,
3.1633,-44.1,31.8,-246.9,-205.5,-17.4,-184.5,-55.2,0,0,5694,0,85,0,
3.1667,-48.6,40.5,-241.5,-202.2,-16.2,-183.9,-54.3,0,0,5700,0,86,0,
3.1700,-55.8,49.2,-238.2,-192.6,-15.6,-181.8,-49.2,0,0,5706,0,87,0,
3.1733,-61.8,69.9,-231.3,-172.8,-10.5,-184.2,-48.0,0,0,5712,0,88,0,
3.1767,-58.2,51.0,-242.7,-186.3,-20.7,-189.6,-53.7,0,0,5718,0,89,0,
3.1800,-51.6,24.0,-256.2,-208.5,-21.3,-190.8,-58.8,0,0,5724,0,90,0,
3.1833,-52.2,39.3,-248.7,-207.9,-20.1,-186.0,-52.8,0,0,5730,0,91,0,
3.1867,-66.0,48.0,-242.1,-191.7,-17.1,-186.3,-46.5,0,0,5736,0,92,0,
3.1900,-74.7,62.7,-241.8,-176.4,-15.0,-188.7,-44.1,0,0,5742,0,93,0,
3.1933,-59.1,54.6,-245.1,-188.1,-18.0,-186.3,-46.2,0,0,5748,0,94,0,
3.1967,-53.1,32.4,-250.8,-206.4,-24.0,-186.9,-48.0,0,0,5754,0,95,0,
3.2000,-53.1,42.6,-243.6,-205.8,-19.2,-185.4,-51.9,0,0,5760,0,96,0,
3.2033,-64.8,61.2,-238.2,-190.2,-18.0,-184.5,-42.0,0,0,5766,0,97,0,
3.2067,-71.4,63.0,-231.0,-169.8,-13.5,-180.3,-35.1,0,0,5772,0,98,0,
3.2100,-63.6,43.5,-247.8,-184.5,-21.9,-195.3,-51.3,0,0,5778,0,99,0,
3.2133,-65.1,23.7,-258.3,-202.5,-25.5,-194.4,-67.5,0,0,5784,0,100,0,
3.2167,-69.9,24.9,-258.0,-205.8,-30.3,-199.5,-68.1,0,0,5790,0,101,0,
3.2200,-72.9,41.7,-248.4,-190.5,-27.9,-204.0,-63.6,0,0,5796,0,102,0,
3.2233,-78.6,56.4,-242.7,-174.0,-24.9,-198.6,-52.2,0,0,5802,0,103,0,
3.2267,-70.5,43.5,-249.0,-189.0,-27.3,-198.0,-62.1,0,0,5808,0,104,0,
3.2300,-72.0,28.2,-257.1,-205.8,-29.1,-200.7,-72.9,0,0,5814,0,105,0,
3.2333,-70.5,7.8,-262.8,-209.1,-26.4,-198.6,-66.3,0,0,5820,0,106,0,
3.2367,-76.2,25.5,-254.7,-198.3,-20.4,-194.7,-61.8,0,0,5826,0,107,0,
3.2400,-73.2,52.5,-239.7,-177.9,-14.4,-188.1,-52.2,0,0,5832,0,108,0,
3.2433,-69.3,45.6,-247.2,-186.0,-20.7,-191.7,-53.1,0,0,5838,0,109,0,
3.2467,-51.9,33.9,-254.1,-199.8,-18.0,-186.0,-60.0,0,0,5844,0,110,0,
3.2500,-51.3,30.6,-248.4,-200.7,-16.8,-185.7,-55.2,0,0,5850,0,111,0,
3.2533,-51.3,50.7,-239.4,-186.9,-14.1,-183.6,-47.7,0,0,5856,0,112,0,
3.2567,-63.3,73.5,-230.4,-167.7,-8.4,-178.5,-36.9,0,0,5862,0,113,0,
3.2600,-53.7,66.3,-236.1,-179.7,-12.3,-178.8,-36.9,0,0,5868,0,114,0,
3.2633,-41.4,48.3,-249.6,-200.1,-6.6,-170.7,-36.9,0,0,5874,0,115,0,
3.2667,-41.1,54.0,-242.1,-201.3,-8.4,-170.7,-36.0,0,0,5880,0,116,0,
3.2700,-54.6,61.2,-240.3,-191.4,-10.5,-167.4,-29.7,0,0,5886,0,117,0,
3.2733,-35.7,76.2,-224.7,-169.5,-0.9,-166.5,-17.7,0,0,5892,0,118,0,
3.2767,-41.1,67.8,-236.4,-183.3,-5.4,-169.5,-32.7,0,0,5898,0,119,0,
3.2800,-33.9,47.1,-246.0,-201.6,-12.9,-175.8,-50.7,0,0,5904,0,120,0,
3.2833,-42.0,57.6,-241.8,-197.1,-15.3,-177.3,-51.6,0,0,5910,0,121,0,
3.2867,-41.1,56.1,-235.5,-185.7,-16.2,-182.1,-50.1,0,0,5916,0,122,0,
3.2900,-49.5,71.4,-225.0,-166.8,-7.5,-165.9,-36.6,0,0,5922,0,123,0,
3.2933,-42.3,55.8,-237.9,-178.8,-16.2,-180.6,-40.8,0,0,5928,0,124,0,
3.2967,-51.6,39.9,-245.4,-198.6,-24.3,-183.0,-51.6,0,0,5934,0,125,0,
3.3000,-50.1,42.9,-245.1,-198.6,-18.0,-182.1,-45.3,0,0,5940,0,126,0,
3.3033,-42.3,64.5,-233.1,-185.7,-15.0,-174.9,-34.5,0,0,5946,0,127,0,
3.3067,-44.7,71.1,-226.2,-167.7,-8.7,-173.4,-31.8,0,0,5952,0,128,0,
3.3100,-48.0,56.4,-239.1,-181.5,-14.1,-178.8,-41.4,0,0,5958,0,129,0,
3.3133,-48.0,40.5,-246.6,-196.2,-18.3,-181.2,-46.8,0,0,5964,0,130,0,
3.3167,-53.4,45.6,-245.7,-197.4,-18.0,-181.5,-44.4,0,0,5970,0,131,0,
3.3200,-48.9,50.1,-242.1,-187.8,-17.1,-178.2,-37.8,0,0,5976,0,132,0,
3.3233,-57.6,57.9,-236.4,-167.4,-14.7,-180.6,-37.2,0,0,5982,0,133,0,
3.3267,-42.3,54.0,-241.2,-178.5,-14.1,-180.9,-39.0,0,0,5988,0,134,0,
3.3300,-43.2,49.2,-244.2,-192.9,-17.1,-177.9,-42.6,0,0,5994,0,135,0,
3.3333,-44.7,51.0,-242.1,-196.8,-16.5,-179.4,-39.6,0,0,6000,0,136,0,
3.3367,-52.8,67.5,-232.2,-183.3,-16.2,-180.6,-32.4,0,0,6006,0,137,0,
3.3400,-47.7,71.4,-227.1,-170.7,-13.2,-181.5,-25.5,0,0,6012,0,138,0,
3.3433,-51.6,62.1,-237.0,-179.4,-15.0,-178.8,-27.3,0,0,6018,0,139,0,
3.3467,-47.1,54.0,-240.6,-199.8,-20.1,-186.3,-34.5,0,0,6024,0,140,0,
3.3500,-46.2,66.0,-234.6,-193.5,-17.7,-184.5,-36.0,0,0,6030,0,141,0,
3.3533,-43.5,56.1,-231.0,-182.4,-11.4,-180.0,-30.3,0,0,6036,0,142,0,
3.3567,-51.9,70.8,-227.4,-167.4,-9.3,-182.4,-31.2,0,0,6042,0,143,0,
3.3600,-53.1,55.5,-241.5,-181.2,-14.4,-185.4,-38.1,0,0,6048,0,144,0,
3.3633,-55.8,35.7,-252.3,-199.2,-18.6,-189.0,-50.7,0,0,6054,0,145,0,
3.3667,-54.0,36.6,-248.1,-195.9,-18.6,-185.4,-49.2,0,0,6060,0,146,0,
3.3700,-62.4,44.1,-243.6,-192.6,-16.8,-184.5,-43.8,0,0,6066,0,147,0,
3.3733,-63.0,59.4,-236.1,-176.1,-10.8,-180.0,-34.8,0,0,6072,0,148,0,
3.3767,-64.5,46.5,-247.2,-186.0,-12.3,-181.8,-40.5,0,0,6078,0,149,0,
3.3800,-49.8,37.8,-250.8,-198.3,-17.7,-185.1,-47.4,0,0,6084,0,150,0,
3.3833,-50.4,41.4,-249.0,-198.9,-14.4,-183.0,-44.7,0,0,6090,0,151,0,
3.3867,-58.2,41.1,-246.3,-189.0,-15.0,-184.2,-50.7,0,0,6096,0,152,0,
3.3900,-66.0,58.5,-232.5,-173.1,-9.9,-182.4,-42.9,0,0,6102,0,153,0,
3.3933,-62.7,43.8,-243.9,-188.7,-13.8,-188.4,-48.3,0,0,6108,0,154,0,
3.3967,-51.6,32.7,-246.6,-203.4,-15.9,-185.4,-48.3,0,0,6114,0,155,0,
3.4000,-51.0,34.8,-243.3,-199.2,-13.8,-182.7,-42.3,0,0,6120,0,156,0,
3.4033,-55.5,54.0,-233.4,-183.6,-9.6,-178.5,-41.4,0,0,6126,0,157,0,
3.4067,-55.2,66.3,-230.4,-168.9,-7.8,-177.3,-29.4,0,0,6132,0,158,0,
3.4100,-51.6,52.8,-238.2,-182.4,-10.5,-177.0,-34.5,0,0,6138,0,159,0,
3.4133,-46.2,48.3,-239.4,-199.8,-14.4,-180.0,-43.5,0,0,6144,0,160,0,
3.4167,-50.7,45.3,-240.3,-200.1,-10.2,-183.0,-45.9,0,0,6150,0,161,0,
3.4200,-51.9,40.8,-238.5,-188.7,-9.9,-178.2,-48.3,0,0,6156,0,162,0,
3.4233,-63.0,62.7,-228.0,-168.6,-1.8,-170.1,-35.4,0,0,6162,0,163,0,
3.4267,-59.1,45.3,-238.2,-183.6,-11.4,-191.4,-45.3,0,0,6168,0,164,0,
3.4300,-51.0,25.8,-250.8,-208.2,-16.5,-191.7,-51.6,0,0,6174,0,165,0,
3.4333,-49.8,28.8,-247.2,-202.5,-10.5,-188.1,-49.5,0,0,6180,0,166,0,
3.4367,-57.3,48.9,-236.1,-191.1,-9.3,-188.7,-40.8,0,0,6186,0,167,0,
3.4400,-56.4,60.6,-234.0,-173.4,-2.1,-184.8,-27.6,0,0,6192,0,168,0,
3.4433,-54.3,60.0,-242.1,-189.6,-8.1,-186.0,-41.7,0,0,6198,0,169,0,
3.4467,-45.6,52.5,-243.3,-202.8,-13.2,-188.4,-56.7,0,0,6204,0,170,0,
3.4500,-54.0,48.0,-242.7,-206.1,-13.2,-191.4,-51.6,0,0,6210,0,171,0,
3.4533,-52.5,48.6,-234.3,-189.0,-3.3,-183.9,-42.9,0,0,6216,0,172,0,
3.4567,-58.2,58.5,-231.0,-174.0,-3.9,-178.2,-37.2,0,0,6222,0,173,0,
3.4600,-44.4,48.9,-236.4,-181.5,-11.4,-197.4,-41.7,0,0,6228,0,174,0,
3.4633,-46.5,30.6,-248.7,-206.1,-16.8,-192.0,-53.4,0,0,6234,0,175,0,
3.4667,-47.1,39.3,-238.2,-201.6,-13.5,-190.5,-52.5,0,0,6240,0,176,0,
3.4700,-52.5,53.1,-233.4,-184.5,-9.3,-187.5,-45.0,0,0,6246,0,177,0,
3.4733,-56.4,75.0,-220.8,-165.9,-6.6,-186.9,-29.7,0,0,6252,0,178,0,
3.4767,-54.3,59.1,-235.2,-180.0,-13.2,-191.4,-42.3,0,0,6258,0,179,0,
3.4800,-51.9,33.6,-245.4,-204.0,-17.1,-195.6,-50.1,0,0,6264,0,180,0,
3.4833,-53.4,50.1,-234.6,-193.2,-15.3,-192.0,-53.1,0,0,6270,0,181,0,
3.4867,-58.5,67.5,-222.0,-180.0,-7.5,-181.2,-30.9,0,0,6276,0,182,0,
3.4900,-60.0,72.6,-222.0,-166.5,-8.1,-184.8,-31.2,0,0,6282,0,183,0,
3.4933,-49.2,55.8,-231.0,-176.1,-6.3,-183.6,-31.2,0,0,6288,0,184,0,
3.4967,-49.5,36.6,-243.0,-200.1,-13.2,-190.5,-46.5,0,0,6294,0,185,0,
3.5000,-57.6,45.0,-237.6,-202.5,-10.8,-185.7,-48.6,0,0,6300,0,186,0,
3.5033,-62.7,54.9,-234.9,-191.4,-12.3,-180.3,-49.2,0,0,6306,0,187,0,
3.5067,-69.9,69.6,-229.2,-165.6,-2.1,-174.9,-27.6,0,0,6312,0,188,0,
3.5100,-59.4,54.3,-238.8,-179.4,-14.4,-187.8,-36.3,0,0,6318,0,189,0,
3.5133,-56.1,49.5,-246.0,-200.1,-16.2,-186.6,-47.1,0,0,6324,0,190,0,
3.5167,-57.6,46.2,-244.5,-197.1,-11.7,-184.5,-44.4,0,0,6330,0,191,0,
3.5200,-60.6,63.3,-235.2,-186.3,-4.5,-177.9,-32.1,0,0,6336,0,192,0,
3.5233,-63.3,77.1,-227.7,-166.5,1.2,-175.8,-22.2,0,0,6342,0,193,0,
3.5267,-66.3,49.2,-239.4,-183.9,-7.2,-184.8,-36.9,0,0,6348,0,194,0,
3.5300,-55.8,40.2,-248.1,-202.8,-11.7,-186.0,-46.5,0,0,6354,0,195,0,
3.5333,-57.3,54.0,-242.7,-203.4,-12.3,-182.1,-36.0,0,0,6360,0,196,0,
3.5367,-63.6,62.7,-235.5,-186.6,-7.8,-180.3,-31.8,0,0,6366,0,197,0,
3.5400,-66.6,77.1,-225.0,-168.0,-5.7,-180.0,-21.9,0,0,6372,0,198,0,
3.5433,-54.6,63.0,-239.1,-180.3,-8.4,-181.2,-31.2,0,0,6378,0,199,0,
3.5467,-58.5,49.8,-245.1,-195.6,-16.5,-184.5,-36.0,0,0,6384,0,200,0,
3.5500,-48.9,61.2,-238.2,-196.2,-14.7,-184.2,-38.7,0,0,6390,0,201,0,
3.5533,-51.9,66.9,-230.4,-179.7,-8.7,-179.4,-32.4,0,0,6396,0,202,0,
3.5567,-53.1,69.0,-222.9,-161.7,-4.2,-178.2,-24.3,0,0,6402,0,203,0,
3.5600,-52.8,65.4,-229.2,-173.4,-10.8,-181.5,-33.3,0,0,6408,0,204,0,
3.5633,-48.6,40.5,-245.1,-197.1,-12.0,-178.2,-39.0,0,0,6414,0,205,0,
3.5667,-57.3,47.4,-236.7,-197.1,-11.4,-175.2,-36.9,0,0,6420,0,206,0,
3.5700,-56.1,60.9,-232.2,-187.2,-11.1,-183.6,-25.2,0,0,6426,0,207,0,
3.5733,-68.7,85.8,-219.6,-166.2,-5.1,-175.2,-19.2,0,0,6432,0,208,0,
3.5767,-57.9,64.8,-233.4,-181.2,-9.6,-182.7,-27.3,0,0,6438,0,209,0,
3.5800,-57.3,52.8,-240.0,-202.5,-15.0,-184.8,-34.8,0,0,6444,0,210,0,
3.5833,-58.5,45.9,-248.1,-206.1,-16.8,-184.8,-34.2,0,0,6450,0,211,0,
3.5867,-72.0,63.3,-239.1,-196.2,-10.5,-179.7,-34.5,0,0,6456,0,212,0,
3.5900,-82.2,64.8,-238.2,-177.6,-5.4,-181.8,-28.5,0,0,6462,0,213,0,
3.5933,-75.0,51.0,-246.9,-189.3,-10.8,-189.3,-41.7,0,0,6468,0,214,0,
3.5967,-68.4,41.1,-254.7,-205.8,-15.0,-189.0,-46.5,0,0,6474,0,215,0,
3.6000,-65.7,48.6,-246.0,-204.3,-15.0,-184.2,-36.9,0,0,6480,0,216,0,
3.6033,-63.9,61.2,-235.5,-187.8,-8.7,-174.6,-27.0,0,0,6486,0,217,0,
3.6067,-61.2,80.7,-224.4,-167.4,-3.6,-174.0,-15.3,0,0,6492,0,218,0,
3.6100,-56.1,67.5,-239.1,-183.3,-8.7,-168.0,-20.1,0,0,6498,0,219,0,
3.6133,-56.4,50.4,-245.7,-203.4,-14.4,-178.2,-32.7,0,0,6504,0,220,0,
3.6167,-52.8,60.9,-241.8,-200.7,-12.9,-174.9,-32.4,0,0,6510,0,221,0,
3.6200,-60.0,76.8,-239.1,-185.4,-10.2,-176.7,-27.3,0,0,6516,0,222,0,
3.6233,-63.6,85.8,-230.7,-161.7,-4.8,-172.2,-16.5,0,0,6522,0,223,0,
3.6267,-66.9,67.5,-240.6,-180.6,-11.7,-177.0,-20.1,0,0,6528,0,224,0,
3.6300,-70.2,42.9,-252.9,-200.7,-20.1,-181.8,-40.5,0,0,6534,0,225,0,
3.6333,-68.7,49.2,-244.2,-197.4,-17.1,-189.3,-42.9,0,0,6540,0,226,0,
3.6367,-75.0,51.0,-246.6,-186.3,-15.3,-183.6,-40.5,0,0,6546,0,227,0,
3.6400,-83.4,72.0,-232.5,-164.7,-6.0,-177.9,-35.4,0,0,6552,0,228,0,
3.6433,-76.8,48.3,-247.2,-179.1,-14.1,-185.4,-42.9,0,0,6558,0,229,0,
3.6467,-75.0,39.9,-252.9,-197.4,-20.1,-190.2,-50.4,0,0,6564,0,230,0,
3.6500,-75.9,39.9,-252.0,-200.1,-20.7,-186.0,-49.8,0,0,6570,0,231,0,
3.6533,-81.6,60.0,-241.2,-185.7,-12.9,-182.7,-41.1,0,0,6576,0,232,0,
3.6567,-79.8,76.5,-235.8,-165.3,-9.0,-183.0,-30.0,0,0,6582,0,233,0,
3.6600,-78.6,66.0,-243.9,-182.7,-15.0,-183.6,-35.7,0,0,6588,0,234,0,
3.6633,-71.7,60.6,-248.7,-201.6,-18.3,-184.8,-38.1,0,0,6594,0,235,0,
3.6667,-65.4,50.4,-241.8,-192.3,-7.2,-171.9,-30.3,0,0,6600,0,236,0,
3.6700,-62.7,61.5,-240.0,-181.2,-9.0,-178.8,-20.7,0,0,6606,0,237,0,
3.6733,-69.0,93.6,-226.5,-170.1,0.9,-161.4,-13.2,0,0,6612,0,238,0,
3.6767,-59.1,82.2,-236.1,-181.5,-4.2,-166.2,-14.1,0,0,6618,0,239,0,
3.6800,-64.8,60.3,-245.4,-198.0,-10.8,-174.0,-34.2,0,0,6624,0,240,0,
3.6833,-69.6,57.9,-243.3,-192.9,-6.6,-171.0,-27.0,0,0,6630,0,241,0,
3.6867,-60.0,71.1,-231.0,-185.1,-6.3,-169.5,-19.8,0,0,6636,0,242,0,
3.6900,-50.4,99.9,-220.5,-165.9,-3.9,-168.9,-3.6,0,0,6642,0,243,0,
3.6933,-52.5,94.5,-230.1,-176.7,-10.2,-172.2,-19.2,0,0,6648,0,244,0,
3.6967,-46.8,69.0,-238.2,-192.9,-11.4,-171.3,-24.9,0,0,6654,0,245,0,
3.7000,-46.8,75.0,-238.2,-190.5,-10.5,-171.6,-25.2,0,0,6660,0,246,0,
3.7033,-65.1,85.2,-229.8,-184.8,-12.6,-175.2,-24.0,0,0,6666,0,247,0,
3.7067,-60.0,111.0,-220.5,-159.9,-4.8,-170.4,-15.9,0,0,6672,0,248,0,
3.7100,-63.9,89.4,-229.5,-176.7,-12.3,-177.9,-26.7,0,0,6678,0,249,0,
3.7133,-53.7,81.3,-236.1,-192.9,-16.5,-179.7,-34.2,0,0,6684,0,250,0,
3.7167,-48.6,98.1,-223.5,-187.5,-13.2,-177.6,-24.9,0,0,6690,0,251,0,
3.7200,-60.9,93.0,-223.5,-176.4,-12.0,-174.6,-30.0,0,0,6696,0,252,0,
3.7233,-75.3,114.0,-214.5,-159.9,-12.3,-185.4,-27.6,0,0,6702,0,253,0,
3.7267,-63.9,96.9,-226.5,-170.7,-17.1,-183.3,-30.3,0,0,6708,0,254,0,
3.7300,-57.3,74.1,-238.2,-195.6,-21.9,-180.6,-42.0,0,0,6714,0,255,0,
3.7333,-64.8,79.5,-232.5,-193.2,-15.9,-180.6,-34.2,0,0,6720,0,0,0,
3.7367,-66.0,83.1,-231.0,-183.9,-16.2,-183.3,-35.1,0,0,6726,0,1,0,
3.7400,-68.1,105.9,-218.7,-165.3,-7.2,-177.6,-20.1,0,0,6732,0,2,0,
3.7433,-70.2,94.5,-226.5,-177.3,-17.4,-179.7,-33.9,0,0,6738,0,3,0,
3.7467,-61.5,67.8,-244.5,-202.5,-21.9,-186.0,-37.8,0,0,6744,0,4,0,
3.7500,-63.0,84.9,-234.3,-198.6,-22.5,-184.8,-39.6,0,0,6750,0,5,0,
3.7533,-72.9,86.1,-230.7,-186.9,-18.3,-187.8,-38.1,0,0,6756,0,6,0,
3.7567,-77.4,95.7,-222.6,-167.7,-13.2,-182.4,-27.0,0,0,6762,0,7,0,
3.7600,-74.4,81.9,-230.7,-185.4,-19.8,-192.6,-33.9,0,0,6768,0,8,0,
3.7633,-63.9,57.6,-243.3,-201.3,-22.8,-190.5,-45.9,0,0,6774,0,9,0,
3.7667,-66.6,72.6,-243.0,-200.4,-21.0,-190.8,-35.1,0,0,6780,0,10,0,
3.7700,-71.4,82.2,-235.8,-187.8,-15.9,-183.9,-33.9,0,0,6786,0,11,0,
3.7733,-69.9,88.5,-231.0,-172.5,-9.0,-182.4,-27.9,0,0,6792,0,12,0,
3.7767,-66.3,78.6,-237.6,-185.1,-12.9,-185.1,-38.4,0,0,6798,0,13,0,
3.7800,-67.8,68.4,-248.1,-200.1,-22.5,-190.8,-48.6,0,0,6804,0,14,0,
3.7833,-72.3,64.2,-247.5,-198.6,-21.6,-190.2,-48.0,0,0,6810,0,15,0,
3.7867,-77.7,82.5,-240.6,-185.4,-19.2,-187.8,-43.8,0,0,6816,0,16,0,
3.7900,-71.7,84.6,-233.4,-169.5,-14.4,-189.6,-34.5,0,0,6822,0,17,0,
3.7933,-72.0,78.3,-238.2,-183.6,-20.4,-196.2,-37.8,0,0,6828,0,18,0,
3.7967,-69.6,65.4,-248.7,-198.3,-26.4,-204.0,-57.9,0,0,6834,0,19,0,
3.8000,-69.6,67.8,-245.7,-196.8,-22.8,-199.8,-52.8,0,0,6840,0,20,0,
3.8033,-76.8,70.8,-237.6,-186.3,-20.4,-200.1,-55.2,0,0,6846,0,21,0,
3.8067,-81.6,71.4,-239.7,-169.5,-17.7,-196.2,-49.2,0,0,6852,0,22,0,
3.8100,-70.5,71.1,-242.4,-180.0,-24.3,-201.0,-50.7,0,0,6858,0,23,0,
3.8133,-74.4,58.5,-252.3,-200.1,-27.3,-203.1,-61.8,0,0,6864,0,24,0,
3.8167,-81.6,66.9,-241.5,-197.1,-26.1,-206.4,-66.3,0,0,6870,0,25,0,
3.8200,-85.2,72.9,-243.3,-192.6,-21.3,-198.6,-59.4,0,0,6876,0,26,0,
3.8233,-79.2,79.5,-235.8,-168.9,-13.8,-195.6,-42.6,0,0,6882,0,27,0,
3.8267,-77.4,63.3,-244.5,-183.9,-18.0,-195.9,-54.0,0,0,6888,0,28,0,
3.8300,-75.9,51.3,-250.2,-202.8,-22.2,-198.9,-55.2,0,0,6894,0,29,0,
3.8333,-76.5,60.0,-245.7,-207.0,-22.5,-194.7,-54.0,0,0,6900,0,30,0,
3.8367,-70.8,78.3,-237.9,-189.0,-18.0,-190.2,-42.9,0,0,6906,0,31,0,
3.8400,-68.7,88.2,-232.5,-175.8,-12.3,-186.3,-33.0,0,0,6912,0,32,0,
3.8433,-63.6,86.1,-232.2,-183.6,-15.3,-187.8,-31.8,0,0,6918,0,33,0,
3.8467,-67.2,84.6,-234.3,-192.6,-15.9,-186.9,-41.1,0,0,6924,0,34,0,
3.8500,-72.3,85.8,-237.0,-194.1,-14.1,-187.8,-42.6,0,0,6930,0,35,0,
3.8533,-64.5,72.3,-232.2,-184.2,-9.6,-176.7,-38.4,0,0,6936,0,36,0,
3.8567,-71.7,88.8,-224.4,-170.4,-8.4,-177.6,-33.6,0,0,6942,0,37,0,
3.8600,-69.9,77.7,-235.5,-180.6,-12.0,-181.2,-42.9,0,0,6948,0,38,0,
3.8633,-61.8,72.9,-243.0,-195.9,-19.2,-190.8,-35.1,0,0,6954,0,39,0,
3.8667,-62.7,81.3,-233.4,-194.7,-20.7,-184.5,-36.3,0,0,6960,0,40,0,
3.8700,-57.9,89.1,-228.6,-183.9,-14.4,-182.1,-31.2,0,0,6966,0,41,0,
3.8733,-69.6,98.4,-220.8,-166.2,-7.5,-178.2,-24.3,0,0,6972,0,42,0,
3.8767,-68.7,85.8,-232.2,-179.4,-16.5,-187.5,-38.4,0,0,6978,0,43,0,
3.8800,-65.7,71.1,-241.5,-196.8,-17.4,-186.6,-39.9,0,0,6984,0,44,0,
3.8833,-65.4,80.7,-234.0,-194.4,-15.6,-184.2,-45.3,0,0,6990,0,45,0,
3.8867,-60.3,64.8,-231.3,-188.4,-9.3,-180.3,-39.0,0,0,6996,0,46,0,
3.8900,-75.3,90.3,-220.8,-168.9,-9.6,-182.4,-34.2,0,0,7002,0,47,0,
3.8933,-64.8,77.7,-235.8,-184.2,-14.1,-182.7,-38.1,0,0,7008,0,48,0,
3.8967,-72.9,71.7,-240.0,-198.3,-16.5,-186.9,-49.5,0,0,7014,0,49,0,
3.9000,-59.4,71.7,-235.5,-200.4,-16.5,-184.8,-51.3,0,0,7020,0,50,0,
3.9033,-73.5,85.5,-231.6,-191.7,-17.1,-182.7,-38.1,0,0,7026,0,51,0,
3.9067,-69.3,99.3,-222.3,-172.5,-9.6,-180.9,-24.9,0,0,7032,0,52,0,
3.9100,-73.2,87.9,-232.8,-182.4,-10.5,-181.8,-32.1,0,0,7038,0,53,0,
3.9133,-67.8,72.0,-239.4,-200.4,-16.8,-183.6,-43.2,0,0,7044,0,54,0,
3.9167,-72.0,79.5,-235.8,-199.5,-17.4,-175.5,-39.6,0,0,7050,0,55,0,
3.9200,-65.4,87.3,-227.1,-191.7,-9.6,-170.7,-27.6,0,0,7056,0,56,0,
3.9233,-69.0,95.1,-219.9,-171.0,-3.9,-169.8,-23.4,0,0,7062,0,57,0,
3.9267,-60.3,91.5,-225.0,-178.5,-6.9,-167.4,-28.5,0,0,7068,0,58,0,
3.9300,-54.9,76.8,-234.0,-195.6,-14.4,-177.6,-46.8,0,0,7074,0,59,0,
3.9333,-62.7,74.7,-231.0,-199.2,-15.3,-175.2,-42.9,0,0,7080,0,60,0,
3.9367,-58.5,91.8,-222.0,-183.6,-12.6,-175.2,-28.5,0,0,7086,0,61,0,
3.9400,-65.4,104.1,-220.2,-172.5,-9.0,-176.1,-31.5,0,0,7092,0,62,0,
3.9433,-70.5,92.1,-226.5,-185.4,-12.9,-180.0,-36.0,0,0,7098,0,63,0,
3.9467,-65.4,63.0,-246.6,-210.0,-18.0,-185.1,-43.8,0,0,7104,0,64,0,
3.9500,-70.2,74.7,-240.3,-210.9,-17.7,-178.5,-45.3,0,0,7110,0,65,0,
3.9533,-69.3,87.6,-227.1,-189.6,-12.6,-180.6,-45.0,0,0,7116,0,66,0,
3.9567,-67.2,105.3,-219.0,-168.6,-9.9,-178.8,-33.6,0,0,7122,0,67,0,
3.9600,-59.7,79.5,-231.3,-183.3,-12.6,-181.8,-36.3,0,0,7128,0,68,0,
3.9633,-59.4,67.2,-236.7,-202.5,-16.5,-182.7,-43.5,0,0,7134,0,69,0,
3.9667,-60.3,69.3,-235.8,-201.0,-15.0,-180.9,-42.6,0,0,7140,0,70,0,
3.9700,-66.9,84.9,-227.4,-187.5,-14.4,-181.2,-41.1,0,0,7146,0,71,0,
3.9733,-67.2,93.9,-217.8,-166.2,-5.7,-175.2,-27.9,0,0,7152,0,72,0,
3.9767,-67.5,79.2,-231.0,-183.6,-12.6,-180.0,-37.5,0,0,7158,0,73,0,
3.9800,-55.5,72.0,-234.3,-200.7,-17.4,-180.6,-43.8,0,0,7164,0,74,0,
3.9833,-66.6,67.2,-232.8,-202.8,-14.1,-181.2,-49.5,0,0,7170,0,75,0,
3.9867,-63.9,77.4,-229.2,-187.8,-9.9,-178.5,-44.1,0,0,7176,0,76,0,
3.9900,-65.7,102.0,-215.4,-168.6,-8.1,-172.8,-23.4,0,0,7182,0,77,0,
3.9933,-53.4,89.7,-220.5,-182.7,-9.0,-172.8,-25.2,0,0,7188,0,78,0,
3.9967,-57.3,76.5,-229.8,-202.8,-14.1,-169.8,-30.3,0,0,7194,0,79,0,
4.0000,-47.1,63.6,-231.0,-200.1,-14.7,-184.2,-35.7,0,0,7200,0,80,0,
4.0033,-54.9,86.1,-216.3,-183.0,-6.3,-175.2,-31.8,0,0,7206,0,81,0,
4.0067,-60.6,96.0,-213.9,-168.3,-7.2,-177.3,-26.1,0,0,7212,0,82,0,
4.0100,-58.8,79.2,-231.6,-183.9,-7.5,-176.1,-35.1,0,0,7218,0,83,0,
4.0133,-54.3,55.8,-241.5,-203.1,-15.6,-182.4,-47.1,0,0,7224,0,84,0,
4.0167,-63.0,67.2,-234.9,-203.1,-10.5,-178.8,-44.4,0,0,7230,0,85,0,
4.0200,-60.9,77.1,-230.4,-189.6,-5.7,-175.5,-33.9,0,0,7236,0,86,0,
4.0233,-49.8,99.3,-218.7,-172.5,-3.3,-174.0,-16.8,0,0,7242,0,87,0,
4.0267,-51.9,81.3,-231.9,-186.3,-10.5,-178.8,-31.8,0,0,7248,0,88,0,
4.0300,-48.6,72.0,-231.6,-202.5,-12.0,-175.2,-29.4,0,0,7254,0,89,0,
4.0333,-45.9,72.0,-233.1,-200.4,-13.2,-177.6,-39.0,0,0,7260,0,90,0,
4.0367,-61.5,94.8,-221.1,-187.8,-7.2,-173.4,-26.7,0,0,7266,0,91,0,
4.0400,-50.4,109.8,-214.8,-168.3,0.9,-169.5,-14.1,0,0,7272,0,92,0,
4.0433,-55.8,98.1,-220.8,-182.1,-5.7,-173.1,-24.3,0,0,7278,0,93,0,
4.0467,-51.6,64.5,-231.0,-201.6,-13.2,-179.7,-39.9,0,0,7284,0,94,0,
4.0500,-61.8,63.9,-232.2,-203.7,-15.6,-177.3,-39.6,0,0,7290,0,95,0,
4.0533,-57.9,86.1,-220.2,-186.0,-6.6,-171.6,-38.7,0,0,7296,0,96,0,
4.0567,-54.6,113.4,-209.1,-161.7,2.7,-158.1,-14.7,0,0,7302,0,97,0,
4.0600,-52.5,107.4,-217.5,-177.6,-10.5,-178.5,-23.1,0,0,7308,0,98,0,
4.0633,-49.2,78.9,-227.4,-196.8,-13.8,-171.3,-33.9,0,0,7314,0,99,0,
4.0667,-55.8,76.5,-225.6,-193.8,-10.5,-174.0,-36.9,0,0,7320,0,100,0,
4.0700,-70.8,82.5,-219.6,-183.9,-8.1,-176.4,-38.4,0,0,7326,0,101,0,
4.0733,-69.6,111.3,-208.2,-162.9,-6.9,-173.4,-20.7,0,0,7332,0,102,0,
4.0767,-61.5,97.8,-214.5,-178.2,-12.3,-182.7,-35.4,0,0,7338,0,103,0,
4.0800,-68.1,80.7,-231.0,-201.3,-16.2,-184.5,-43.8,0,0,7344,0,104,0,
4.0833,-66.6,84.0,-222.6,-195.6,-8.4,-174.3,-35.4,0,0,7350,0,105,0,
4.0867,-69.0,103.2,-215.4,-180.0,-7.8,-171.0,-25.5,0,0,7356,0,106,0,
4.0900,-57.6,126.3,-199.8,-157.5,1.2,-153.6,-1.2,0,0,7362,0,107,0,
4.0933,-51.0,105.3,-210.6,-171.9,-8.4,-165.0,-17.4,0,0,7368,0,108,0,
4.0967,-51.0,92.1,-214.5,-186.3,-11.1,-168.6,-20.4,0,0,7374,0,109,0,
4.1000,-60.9,102.3,-215.1,-191.4,-9.6,-167.1,-18.9,0,0,7380,0,110,0,
4.1033,-52.8,109.2,-208.2,-178.8,-3.3,-164.7,-7.8,0,0,7386,0,111,0,
4.1067,-61.2,120.9,-208.5,-165.3,-0.6,-163.5,2.1,0,0,7392,0,112,0,
4.1100,-49.8,119.4,-208.8,-171.6,-4.2,-163.8,0.9,0,0,7398,0,113,0,
4.1133,-51.0,91.5,-222.9,-193.5,-8.1,-167.4,-18.3,0,0,7404,0,114,0,
4.1167,-42.0,104.7,-210.0,-186.9,-5.7,-159.6,-5.4,0,0,7410,0,115,0,
4.1200,-44.4,114.6,-208.2,-174.9,-2.1,-154.8,2.7,0,0,7416,0,116,0,
4.1233,-61.8,124.8,-208.2,-159.0,2.1,-159.3,4.5,0,0,7422,0,117,0,
4.1267,-46.2,113.4,-212.7,-174.0,-1.8,-161.4,-5.1,0,0,7428,0,118,0,
4.1300,-40.5,111.0,-218.4,-194.1,-8.7,-165.6,-11.4,0,0,7434,0,119,0,
4.1333,-40.8,89.7,-221.4,-195.0,-7.5,-171.0,-16.5,0,0,7440,0,120,0,
4.1367,-47.4,100.2,-217.8,-188.1,-9.0,-165.9,-6.6,0,0,7446,0,121,0,
4.1400,-47.7,119.4,-205.5,-162.6,-2.4,-159.9,-3.3,0,0,7452,0,122,0,
4.1433,-45.3,100.8,-221.1,-180.3,-6.6,-163.5,-8.1,0,0,7458,0,123,0,
4.1467,-45.6,85.2,-222.0,-189.6,-8.7,-166.2,-17.4,0,0,7464,0,124,0,
4.1500,-46.8,90.0,-220.8,-193.2,-11.7,-169.5,-23.7,0,0,7470,0,125,0,
4.1533,-49.5,98.7,-214.2,-179.4,-7.5,-164.7,-15.6,0,0,7476,0,126,0,
4.1567,-62.4,113.1,-207.6,-162.6,-5.1,-170.7,-19.5,0,0,7482,0,127,0,
4.1600,-55.2,95.4,-221.4,-178.2,-12.9,-176.1,-26.1,0,0,7488,0,128,0,
4.1633,-42.0,72.0,-229.5,-192.0,-19.5,-175.2,-30.9,0,0,7494,0,129,0,
4.1667,-50.1,72.3,-227.4,-193.5,-18.0,-177.3,-34.8,0,0,7500,0,130,0,
4.1700,-61.5,90.3,-219.3,-183.0,-15.6,-171.0,-33.3,0,0,7506,0,131,0,
4.1733,-62.7,93.6,-213.6,-165.6,-14.1,-174.0,-21.0,0,0,7512,0,132,0,
4.1767,-62.4,90.0,-222.0,-177.0,-14.7,-180.6,-33.9,0,0,7518,0,133,0,
4.1800,-49.8,72.0,-227.4,-195.9,-25.2,-186.3,-46.5,0,0,7524,0,134,0,
4.1833,-54.9,82.5,-222.6,-195.9,-20.7,-184.5,-41.4,0,0,7530,0,135,0,
4.1867,-56.4,81.3,-221.4,-178.5,-13.5,-172.8,-30.9,0,0,7536,0,136,0,
4.1900,-61.2,91.8,-212.7,-158.1,-9.9,-176.4,-26.4,0,0,7542,0,137,0,
4.1933,-52.8,78.6,-222.9,-177.0,-18.0,-182.1,-33.3,0,0,7548,0,138,0,
4.1967,-56.7,70.8,-234.0,-199.5,-23.7,-184.5,-44.1,0,0,7554,0,139,0,
4.2000,-53.1,78.3,-231.0,-197.4,-19.5,-181.5,-36.0,0,0,7560,0,140,0,
4.2033,-57.0,85.5,-227.4,-186.3,-15.6,-181.2,-33.0,0,0,7566,0,141,0,
4.2067,-66.0,107.4,-214.2,-160.5,-10.8,-177.6,-30.3,0,0,7572,0,142,0,
4.2100,-52.2,91.8,-222.3,-172.5,-13.2,-179.7,-28.2,0,0,7578,0,143,0,
4.2133,-50.4,78.3,-226.5,-191.7,-21.0,-178.5,-34.5,0,0,7584,0,144,0,
4.2167,-52.5,85.2,-227.4,-191.7,-19.5,-183.6,-38.4,0,0,7590,0,145,0,
4.2200,-47.1,109.5,-211.5,-174.9,-10.5,-174.3,-24.9,0,0,7596,0,146,0,
4.2233,-55.8,115.2,-209.1,-158.7,-9.3,-170.1,-22.5,0,0,7602,0,147,0,
4.2267,-44.4,87.3,-217.8,-172.2,-11.1,-171.9,-30.3,0,0,7608,0,148,0,
4.2300,-38.7,80.4,-229.2,-190.8,-18.3,-175.8,-34.2,0,0,7614,0,149,0,
4.2333,-44.7,78.0,-228.3,-191.4,-19.5,-181.8,-37.8,0,0,7620,0,150,0,
4.2367,-48.9,87.6,-221.4,-176.7,-19.2,-177.3,-37.5,0,0,7626,0,151,0,
4.2400,-51.0,106.8,-212.4,-160.2,-12.6,-174.3,-27.0,0,0,7632,0,152,0,
4.2433,-44.1,91.5,-222.6,-179.1,-17.7,-174.9,-30.9,0,0,7638,0,153,0,
4.2467,-42.6,81.6,-232.2,-201.0,-18.6,-180.3,-37.5,0,0,7644,0,154,0,
4.2500,-45.0,68.4,-235.5,-198.9,-18.3,-179.1,-36.3,0,0,7650,0,155,0,
4.2533,-58.2,80.4,-230.4,-184.5,-15.0,-178.2,-35.7,0,0,7656,0,156,0,
4.2567,-58.2,93.9,-220.2,-162.0,-10.8,-179.4,-32.7,0,0,7662,0,157,0,
4.2600,-52.2,74.4,-234.0,-178.8,-21.0,-189.0,-45.6,0,0,7668,0,158,0,
4.2633,-54.3,55.8,-243.6,-198.6,-26.1,-195.9,-60.9,0,0,7674,0,159,0,
4.2667,-61.5,58.8,-237.6,-193.2,-24.9,-189.3,-54.3,0,0,7680,0,160,0,
4.2700,-66.3,69.9,-232.5,-184.5,-23.7,-189.3,-46.5,0,0,7686,0,161,0,
4.2733,-69.3,83.4,-223.8,-165.3,-17.4,-187.8,-39.9,0,0,7692,0,162,0,
4.2767,-61.2,64.2,-240.0,-185.7,-26.4,-194.4,-46.5,0,0,7698,0,163,0,
4.2800,-59.1,61.8,-242.1,-200.1,-27.0,-189.9,-51.0,0,0,7704,0,164,0,
4.2833,-56.7,67.8,-237.6,-203.4,-27.0,-188.4,-54.9,0,0,7710,0,165,0,
4.2867,-61.5,71.7,-233.1,-190.2,-23.7,-186.6,-44.7,0,0,7716,0,166,0,
4.2900,-64.2,87.0,-222.9,-166.8,-18.3,-183.0,-34.2,0,0,7722,0,167,0,
4.2933,-48.0,72.9,-232.2,-180.9,-19.5,-181.8,-33.6,0,0,7728,0,168,0,
4.2967,-46.8,60.3,-238.8,-195.6,-23.4,-176.7,-44.7,0,0,7734,0,169,0,
4.3000,-42.0,72.3,-233.4,-195.6,-19.2,-176.4,-40.5,0,0,7740,0,170,0,
4.3033,-54.0,83.4,-225.6,-181.8,-16.8,-174.3,-38.4,0,0,7746,0,171,0,
4.3067,-62.4,100.2,-218.1,-163.2,-11.1,-174.3,-29.4,0,0,7752,0,172,0,
4.3100,-44.4,97.2,-221.4,-173.7,-13.5,-168.9,-25.2,0,0,7758,0,173,0,
4.3133,-39.0,82.5,-224.7,-195.3,-21.6,-173.7,-34.8,0,0,7764,0,174,0,
4.3167,-47.4,71.1,-233.7,-194.7,-19.2,-172.2,-42.3,0,0,7770,0,175,0,
4.3200,-53.7,82.2,-227.7,-186.3,-15.9,-171.0,-29.7,0,0,7776,0,176,0,
4.3233,-57.9,95.4,-222.6,-164.4,-12.0,-181.2,-29.4,0,0,7782,0,177,0,
4.3267,-61.8,73.8,-234.0,-176.1,-14.4,-178.2,-39.0,0,0,7788,0,178,0,
4.3300,-46.2,53.4,-243.9,-195.3,-18.9,-180.9,-48.0,0,0,7794,0,179,0,
4.3333,-36.9,75.0,-229.2,-195.3,-15.0,-177.9,-31.5,0,0,7800,0,180,0,
4.3367,-44.1,87.0,-223.2,-184.2,-15.9,-177.3,-31.8,0,0,7806,0,181,0,
4.3400,-54.3,107.1,-212.4,-163.5,-13.8,-175.8,-22.2,0,0,7812,0,182,0,
4.3433,-54.3,84.0,-229.5,-184.5,-23.1,-185.1,-37.8,0,0,7818,0,183,0,
4.3467,-61.5,72.3,-238.2,-199.2,-26.7,-186.9,-45.3,0,0,7824,0,184,0,
4.3500,-50.1,64.2,-237.9,-199.8,-26.4,-181.5,-48.0,0,0,7830,0,185,0,
4.3533,-61.5,77.4,-225.3,-185.4,-19.8,-181.5,-37.5,0,0,7836,0,186,0,
4.3567,-63.9,86.1,-224.1,-167.1,-14.7,-176.7,-28.8,0,0,7842,0,187,0,
4.3600,-61.8,78.0,-229.2,-185.1,-22.5,-186.3,-43.8,0,0,7848,0,188,0,
4.3633,-53.1,65.1,-239.7,-204.0,-24.6,-180.9,-49.5,0,0,7854,0,189,0,
4.3667,-51.0,65.1,-233.7,-202.8,-23.7,-183.0,-43.2,0,0,7860,0,190,0,
4.3700,-54.6,77.4,-225.9,-189.3,-18.9,-179.1,-49.2,0,0,7866,0,191,0,
4.3733,-60.3,103.5,-213.6,-164.7,-10.2,-171.0,-29.7,0,0,7872,0,192,0,
4.3767,-57.3,87.0,-232.2,-185.1,-18.6,-180.3,-46.8,0,0,7878,0,193,0,
4.3800,-57.0,59.4,-241.2,-203.7,-24.9,-184.5,-45.6,0,0,7884,0,194,0,
4.3833,-57.0,70.5,-236.1,-200.1,-21.3,-184.2,-47.4,0,0,7890,0,195,0,
4.3867,-60.6,94.2,-217.2,-181.8,-13.8,-173.7,-32.4,0,0,7896,0,196,0,
4.3900,-59.1,99.3,-216.0,-163.2,-9.9,-169.2,-28.2,0,0,7902,0,197,0,
4.3933,-55.8,90.0,-228.0,-179.1,-11.7,-171.6,-30.9,0,0,7908,0,198,0,
4.3967,-52.5,66.6,-240.0,-200.4,-17.7,-171.9,-43.8,0,0,7914,0,199,0,
4.4000,-53.1,72.0,-233.7,-200.1,-20.1,-177.6,-43.8,0,0,7920,0,200,0,
4.4033,-62.1,77.4,-230.4,-192.6,-13.2,-175.8,-36.9,0,0,7926,0,201,0,
4.4067,-63.6,99.3,-222.9,-169.5,-8.1,-171.3,-36.0,0,0,7932,0,202,0,
4.4100,-51.0,70.5,-234.9,-188.7,-22.2,-185.7,-36.3,0,0,7938,0,203,0,
4.4133,-48.9,56.7,-240.6,-203.7,-24.9,-178.2,-41.4,0,0,7944,0,204,0,
4.4167,-54.3,71.4,-234.0,-202.2,-23.4,-178.2,-38.1,0,0,7950,0,205,0,
4.4200,-53.7,87.6,-226.2,-187.5,-18.3,-177.0,-42.6,0,0,7956,0,206,0,
4.4233,-64.5,89.7,-223.5,-169.8,-15.9,-175.8,-33.6,0,0,7962,0,207,0,
4.4267,-68.4,68.1,-234.0,-185.1,-23.1,-183.9,-53.1,0,0,7968,0,208,0,
4.4300,-59.1,55.8,-243.0,-210.3,-27.3,-182.7,-56.7,0,0,7974,0,209,0,
4.4333,-56.7,61.2,-234.9,-208.5,-24.3,-180.9,-58.5,0,0,7980,0,210,0,
4.4367,-68.1,80.1,-232.2,-193.5,-20.4,-181.5,-47.4,0,0,7986,0,211,0,
4.4400,-66.6,84.9,-222.0,-172.2,-15.6,-178.5,-39.9,0,0,7992,0,212,0,
4.4433,-60.0,68.7,-233.1,-187.8,-20.7,-179.4,-48.6,0,0,7998,0,213,0,
4.4467,-52.5,53.4,-240.6,-204.0,-27.3,-184.2,-57.6,0,0,8004,0,214,0,
4.4500,-52.8,62.4,-232.5,-200.4,-22.2,-181.8,-55.2,0,0,8010,0,215,0,
4.4533,-53.4,82.5,-226.2,-188.7,-15.6,-174.6,-36.9,0,0,8016,0,216,0,
4.4567,-54.6,102.6,-210.9,-162.6,-10.8,-172.8,-25.2,0,0,8022,0,217,0,
4.4600,-48.6,97.5,-219.3,-177.6,-13.2,-172.2,-34.2,0,0,8028,0,218,0,
4.4633,-44.1,68.7,-229.8,-198.3,-19.5,-178.5,-45.6,0,0,8034,0,219,0,
4.4667,-42.0,69.0,-230.7,-198.6,-18.0,-178.2,-46.5,0,0,8040,0,220,0,
4.4700,-44.4,85.8,-217.5,-183.0,-13.8,-175.8,-36.3,0,0,8046,0,221,0,
4.4733,-50.1,104.4,-212.7,-161.4,-14.4,-174.3,-28.5,0,0,8052,0,222,0,
4.4767,-43.5,87.9,-220.8,-174.9,-12.0,-169.8,-31.8,0,0,8058,0,223,0,
4.4800,-32.4,66.9,-231.9,-198.6,-15.3,-168.3,-39.9,0,0,8064,0,224,0,
4.4833,-39.6,72.3,-227.4,-194.7,-17.7,-169.2,-42.9,0,0,8070,0,225,0,
4.4867,-42.0,92.4,-216.0,-179.4,-12.0,-168.0,-35.1,0,0,8076,0,226,0,
4.4900,-42.9,111.3,-207.3,-157.8,-2.7,-162.0,-17.4,0,0,8082,0,227,0,
4.4933,-40.5,90.3,-222.9,-175.8,-10.2,-166.2,-33.9,0,0,8088,0,228,0,
4.4967,-44.1,78.6,-229.8,-193.5,-17.1,-173.7,-48.0,0,0,8094,0,229,0,
4.5000,-44.1,75.3,-231.3,-194.7,-16.5,-171.6,-47.7,0,0,8100,0,230,0,
4.5033,-45.9,76.2,-221.7,-179.7,-10.5,-172.5,-42.0,0,0,8106,0,231,0,
4.5067,-48.6,93.6,-208.5,-156.0,-2.1,-170.4,-31.2,0,0,8112,0,232,0,
4.5100,-46.8,78.0,-220.2,-172.8,-10.2,-175.2,-35.1,0,0,8118,0,233,0,
4.5133,-28.2,64.8,-225.6,-192.9,-16.8,-168.9,-42.9,0,0,8124,0,234,0,
4.5167,-31.8,72.0,-219.3,-189.6,-16.2,-177.9,-40.8,0,0,8130,0,235,0,
4.5200,-29.4,90.9,-215.7,-174.9,-13.2,-171.0,-29.7,0,0,8136,0,236,0,
4.5233,-46.2,108.3,-206.1,-159.9,-10.5,-174.3,-22.8,0,0,8142,0,237,0,
4.5267,-39.3,95.7,-215.7,-173.1,-17.4,-177.0,-33.0,0,0,8148,0,238,0,
4.5300,-36.0,75.6,-226.2,-198.0,-22.8,-177.6,-38.4,0,0,8154,0,239,0,
4.5333,-41.7,78.3,-224.4,-193.2,-22.2,-181.8,-49.8,0,0,8160,0,240,0,
4.5367,-41.7,82.8,-217.2,-180.6,-12.3,-179.7,-40.2,0,0,8166,0,241,0,
4.5400,-51.9,98.7,-212.1,-164.4,-11.1,-179.4,-30.9,0,0,8172,0,242,0,
4.5433,-39.6,74.1,-219.9,-179.7,-15.3,-181.2,-31.8,0,0,8178,0,243,0,
4.5467,-42.0,68.4,-230.4,-196.2,-19.2,-182.4,-43.2,0,0,8184,0,244,0,
4.5500,-38.1,68.1,-227.1,-193.2,-16.5,-178.8,-38.1,0,0,8190,0,245,0,
4.5533,-45.9,77.4,-221.4,-179.7,-12.3,-178.5,-31.2,0,0,8196,0,246,0,
4.5567,-51.0,100.5,-210.0,-159.0,-8.7,-174.3,-24.0,0,0,8202,0,247,0,
4.5600,-47.7,74.1,-222.9,-179.1,-14.1,-179.1,-30.6,0,0,8208,0,248,0,
4.5633,-43.5,60.0,-239.4,-203.4,-21.9,-185.7,-47.4,0,0,8214,0,249,0,
4.5667,-47.7,60.9,-235.2,-198.3,-19.8,-182.4,-50.7,0,0,8220,0,250,0,
4.5700,-61.5,74.1,-223.2,-186.9,-16.8,-183.0,-42.3,0,0,8226,0,251,0,
4.5733,-58.5,98.1,-222.9,-167.4,-7.5,-182.4,-32.4,0,0,8232,0,252,0,
4.5767,-52.2,72.0,-231.0,-179.1,-16.5,-186.0,-37.5,0,0,8238,0,253,0,
4.5800,-38.1,61.8,-237.3,-197.4,-20.4,-182.1,-40.2,0,0,8244,0,254,0,
4.5833,-36.3,73.5,-230.1,-195.3,-19.5,-180.6,-38.4,0,0,8250,0,255,0,
4.5867,-42.3,86.1,-222.3,-184.8,-13.5,-179.1,-29.4,0,0,8256,0,0,0,
4.5900,-44.7,106.8,-211.8,-161.1,-8.7,-176.1,-17.7,0,0,8262,0,1,0,
4.5933,-39.3,74.4,-228.3,-176.7,-14.4,-180.0,-28.8,0,0,8268,0,2,0,
4.5967,-37.8,64.8,-234.3,-193.5,-19.5,-180.6,-43.5,0,0,8274,0,3,0,
4.6000,-42.6,63.6,-232.5,-196.5,-11.1,-177.6,-45.6,0,0,8280,0,4,0,
4.6033,-42.3,68.4,-227.4,-183.3,-10.8,-177.6,-43.8,0,0,8286,0,5,0,
4.6067,-48.3,93.3,-210.9,-159.6,-9.0,-177.6,-28.8,0,0,8292,0,6,0,
4.6100,-36.0,88.2,-220.8,-178.2,-12.9,-180.9,-39.0,0,0,8298,0,7,0,
4.6133,-30.6,66.3,-228.0,-194.7,-19.8,-182.4,-46.2,0,0,8304,0,8,0,
4.6167,-39.6,60.0,-233.1,-198.0,-20.4,-184.5,-48.9,0,0,8310,0,9,0,
4.6200,-43.5,79.8,-222.6,-181.2,-13.5,-183.3,-42.3,0,0,8316,0,10,0,
4.6233,-48.0,87.6,-215.7,-163.5,-9.3,-178.5,-37.2,0,0,8322,0,11,0,
4.6267,-45.3,66.6,-227.1,-175.8,-13.5,-182.7,-38.7,0,0,8328,0,12,0,
4.6300,-46.2,56.7,-236.7,-198.0,-18.3,-188.1,-58.5,0,0,8334,0,13,0,
4.6333,-43.5,49.5,-237.3,-198.6,-16.2,-183.6,-59.7,0,0,8340,0,14,0,
4.6367,-51.0,63.6,-230.4,-180.9,-14.4,-183.9,-53.7,0,0,8346,0,15,0,
4.6400,-50.1,89.1,-216.0,-161.7,-5.1,-177.6,-36.6,0,0,8352,0,16,0,
4.6433,-47.1,73.5,-230.1,-174.9,-12.6,-178.8,-51.3,0,0,8358,0,17,0,
4.6467,-46.2,68.4,-235.8,-192.6,-18.0,-179.1,-58.8,0,0,8364,0,18,0,
4.6500,-47.7,60.3,-236.7,-197.1,-16.5,-180.6,-58.2,0,0,8370,0,19,0,
4.6533,-53.4,73.5,-225.9,-180.9,-14.1,-176.1,-49.2,0,0,8376,0,20,0,
4.6567,-51.6,87.3,-213.9,-154.8,-2.1,-172.8,-36.6,0,0,8382,0,21,0,
4.6600,-40.5,66.3,-231.0,-174.6,-10.8,-176.1,-47.7,0,0,8388,0,22,0,
4.6633,-35.1,54.6,-235.8,-193.8,-13.8,-175.5,-55.5,0,0,8394,0,23,0,
4.6667,-39.9,66.0,-229.8,-189.9,-9.9,-168.3,-48.3,0,0,8400,0,24,0,
4.6700,-42.6,78.0,-223.5,-177.6,-6.3,-165.9,-42.9,0,0,8406,0,25,0,
4.6733,-45.6,98.4,-214.8,-152.4,-1.5,-165.3,-35.7,0,0,8412,0,26,0,
4.6767,-45.9,78.9,-230.7,-171.6,-6.9,-169.8,-45.0,0,0,8418,0,27,0,
4.6800,-38.1,58.8,-239.1,-192.9,-15.9,-173.4,-57.6,0,0,8424,0,28,0,
4.6833,-41.1,45.9,-234.9,-189.3,-13.8,-171.3,-55.2,0,0,8430,0,29,0,
4.6867,-45.3,64.8,-225.3,-173.1,-8.7,-168.0,-46.8,0,0,8436,0,30,0,
4.6900,-51.9,86.7,-221.1,-153.9,-3.9,-168.3,-39.3,0,0,8442,0,31,0,
4.6933,-43.2,73.5,-226.5,-169.8,-4.8,-169.8,-48.6,0,0,8448,0,32,0,
4.6967,-44.4,58.5,-237.9,-186.3,-12.6,-171.0,-58.8,0,0,8454,0,33,0,
4.7000,-44.7,54.6,-232.5,-183.6,-10.2,-163.5,-53.4,0,0,8460,0,34,0,
4.7033,-44.7,76.2,-220.8,-169.2,-10.2,-168.9,-42.0,0,0,8466,0,35,0,
4.7067,-51.0,89.7,-212.7,-148.2,-6.0,-172.2,-37.2,0,0,8472,0,36,0,
4.7100,-56.4,65.1,-229.8,-169.8,-13.2,-176.1,-48.3,0,0,8478,0,37,0,
4.7133,-50.7,44.7,-242.4,-192.0,-19.2,-179.7,-61.5,0,0,8484,0,38,0,
4.7167,-54.6,55.5,-231.9,-186.6,-15.3,-175.5,-56.7,0,0,8490,0,39,0,
4.7200,-54.6,82.8,-221.7,-175.2,-8.1,-168.0,-45.6,0,0,8496,0,40,0,
4.7233,-53.1,88.5,-212.7,-155.1,-3.3,-161.4,-32.1,0,0,8502,0,41,0,
4.7267,-51.6,71.1,-225.6,-168.6,-5.1,-164.7,-38.4,0,0,8508,0,42,0,
4.7300,-45.6,56.4,-234.3,-190.2,-13.2,-170.1,-58.5,0,0,8514,0,43,0,
4.7333,-50.7,56.4,-231.0,-190.8,-14.4,-168.3,-62.1,0,0,8520,0,44,0,
4.7367,-53.1,73.8,-223.8,-172.8,-12.9,-172.5,-49.5,0,0,8526,0,45,0,
4.7400,-60.9,92.1,-213.3,-159.9,-5.1,-168.3,-43.8,0,0,8532,0,46,0,
4.7433,-52.8,73.2,-225.9,-172.2,-5.4,-168.9,-49.5,0,0,8538,0,47,0,
4.7467,-44.1,59.7,-230.4,-188.4,-9.9,-168.0,-51.0,0,0,8544,0,48,0,
4.7500,-47.7,70.2,-229.5,-192.6,-10.5,-165.3,-50.4,0,0,8550,0,49,0,
4.7533,-55.5,67.8,-227.4,-180.9,-5.7,-163.2,-52.2,0,0,8556,0,50,0,
4.7567,-51.6,91.5,-211.5,-158.4,-0.3,-162.3,-34.2,0,0,8562,0,51,0,
4.7600,-42.0,74.1,-219.0,-174.3,-7.2,-165.6,-42.0,0,0,8568,0,52,0,
4.7633,-36.6,58.5,-231.9,-193.5,-12.0,-166.2,-50.7,0,0,8574,0,53,0,
4.7667,-39.0,64.8,-229.5,-193.2,-9.9,-164.1,-48.0,0,0,8580,0,54,0,
4.7700,-46.5,73.8,-222.0,-179.4,-3.9,-165.9,-45.9,0,0,8586,0,55,0,
4.7733,-55.5,93.9,-212.1,-161.7,0.0,-160.8,-34.2,0,0,8592,0,56,0,
4.7767,-50.4,74.4,-223.8,-174.3,-4.5,-166.8,-43.5,0,0,8598,0,57,0,
4.7800,-40.5,62.4,-229.5,-196.5,-11.1,-166.8,-48.9,0,0,8604,0,58,0,
4.7833,-51.3,66.3,-230.1,-200.7,-13.8,-171.9,-54.6,0,0,8610,0,59,0,
4.7867,-53.7,81.9,-222.9,-182.1,-7.5,-170.1,-50.7,0,0,8616,0,60,0,
4.7900,-53.7,93.3,-212.4,-161.7,0.9,-161.7,-33.9,0,0,8622,0,61,0,
4.7933,-44.1,65.7,-226.8,-174.9,-9.9,-167.7,-46.2,0,0,8628,0,62,0,
4.7967,-46.2,51.6,-234.0,-199.2,-14.1,-173.4,-53.4,0,0,8634,0,63,0,
4.8000,-52.2,54.9,-233.7,-196.5,-13.8,-171.6,-56.1,0,0,8640,0,64,0,
4.8033,-53.4,81.0,-220.2,-180.0,-10.2,-166.8,-44.1,0,0,8646,0,65,0,
4.8067,-51.3,97.2,-211.8,-156.9,-7.8,-165.6,-33.0,0,0,8652,0,66,0,
4.8100,-46.5,69.9,-226.5,-174.6,-13.2,-172.8,-41.7,0,0,8658,0,67,0,
4.8133,-43.2,52.8,-234.6,-189.0,-16.8,-173.4,-53.4,0,0,8664,0,68,0,
4.8167,-41.1,63.9,-226.8,-189.3,-14.7,-171.0,-51.9,0,0,8670,0,69,0,
4.8200,-44.4,78.9,-219.6,-172.2,-7.2,-164.4,-42.6,0,0,8676,0,70,0,
4.8233,-53.7,91.5,-213.0,-157.2,-3.6,-164.4,-33.3,0,0,8682,0,71,0,
4.8267,-45.9,75.0,-225.0,-171.6,-8.4,-171.6,-44.4,0,0,8688,0,72,0,
4.8300,-36.0,57.9,-234.9,-190.8,-10.8,-172.8,-51.9,0,0,8694,0,73,0,
4.8333,-48.9,61.5,-234.0,-192.9,-10.2,-169.2,-49.8,0,0,8700,0,74,0,
4.8367,-49.2,78.9,-225.0,-176.4,-7.2,-161.7,-43.5,0,0,8706,0,75,0,
4.8400,-53.7,92.4,-214.2,-159.9,-3.0,-168.0,-35.7,0,0,8712,0,76,0,
4.8433,-52.2,71.4,-227.4,-174.0,-9.6,-174.6,-48.6,0,0,8718,0,77,0,
4.8467,-43.5,55.8,-243.3,-197.7,-16.8,-178.5,-53.1,0,0,8724,0,78,0,
4.8500,-40.5,65.7,-235.2,-195.6,-15.9,-175.8,-56.7,0,0,8730,0,79,0,
4.8533,-48.0,80.7,-227.7,-179.4,-11.7,-177.0,-53.4,0,0,8736,0,80,0,
4.8567,-45.6,90.6,-215.1,-154.5,-4.2,-171.6,-40.2,0,0,8742,0,81,0,
4.8600,-42.3,66.6,-228.9,-174.3,-12.6,-178.2,-48.0,0,0,8748,0,82,0,
4.8633,-40.2,50.7,-240.0,-195.0,-20.7,-185.7,-63.0,0,0,8754,0,83,0,
4.8667,-43.5,58.8,-239.1,-187.8,-14.1,-178.8,-54.0,0,0,8760,0,84,0,
4.8700,-41.4,71.4,-225.0,-174.3,-9.9,-171.9,-43.2,0,0,8766,0,85,0,
4.8733,-43.5,93.9,-212.4,-151.8,-3.6,-165.0,-32.7,0,0,8772,0,86,0,
4.8767,-30.3,78.0,-223.5,-168.9,-5.7,-167.4,-37.8,0,0,8778,0,87,0,
4.8800,-40.2,63.6,-231.0,-188.1,-13.2,-175.5,-54.3,0,0,8784,0,88,0,
4.8833,-32.7,65.4,-234.0,-189.6,-15.0,-173.4,-48.9,0,0,8790,0,89,0,
4.8867,-37.8,83.1,-218.7,-175.8,-9.6,-167.1,-42.9,0,0,8796,0,90,0,
4.8900,-39.0,91.5,-211.2,-158.4,-2.4,-163.5,-30.3,0,0,8802,0,91,0,
4.8933,-41.1,68.4,-223.2,-173.7,-7.8,-169.5,-50.1,0,0,8808,0,92,0,
4.8967,-39.0,62.1,-233.1,-192.6,-11.7,-170.7,-58.2,0,0,8814,0,93,0,
4.9000,-35.4,66.9,-226.5,-194.1,-13.2,-167.4,-46.5,0,0,8820,0,94,0,
4.9033,-31.8,80.7,-221.7,-180.9,-6.3,-163.2,-39.6,0,0,8826,0,95,0,
4.9067,-44.1,96.9,-215.1,-160.2,-1.2,-164.7,-36.0,0,0,8832,0,96,0,
4.9100,-40.8,76.8,-227.7,-178.5,-9.0,-169.2,-45.6,0,0,8838,0,97,0,
4.9133,-40.2,59.1,-237.0,-198.3,-15.0,-174.3,-56.1,0,0,8844,0,98,0,
4.9167,-34.8,70.8,-227.4,-195.9,-15.0,-170.7,-52.8,0,0,8850,0,99,0,
4.9200,-44.1,72.9,-226.2,-180.3,-8.1,-167.4,-52.8,0,0,8856,0,100,0,
4.9233,-51.6,90.3,-220.8,-161.7,-3.9,-165.6,-44.1,0,0,8862,0,101,0,
4.9267,-49.5,89.1,-226.5,-176.4,-7.8,-173.1,-51.6,0,0,8868,0,102,0,
4.9300,-37.8,58.5,-240.6,-192.6,-8.1,-167.7,-59.1,0,0,8874,0,103,0,
4.9333,-32.7,59.7,-231.6,-189.9,-2.1,-160.2,-49.5,0,0,8880,0,104,0,
4.9367,-42.9,72.9,-224.1,-177.6,-3.6,-157.8,-51.3,0,0,8886,0,105,0,
4.9400,-44.1,87.9,-215.7,-156.9,2.1,-157.5,-43.2,0,0,8892,0,106,0,
4.9433,-37.2,74.4,-230.1,-173.7,-6.6,-163.5,-49.8,0,0,8898,0,107,0,
4.9467,-30.3,61.2,-238.8,-193.8,-10.5,-165.9,-52.2,0,0,8904,0,108,0,
4.9500,-42.9,61.2,-240.3,-198.6,-8.1,-164.4,-62.1,0,0,8910,0,109,0,
4.9533,-41.4,74.1,-226.2,-179.7,-6.0,-164.1,-54.9,0,0,8916,0,110,0,
4.9567,-53.7,96.9,-216.0,-155.7,-1.5,-162.9,-44.1,0,0,8922,0,111,0,
4.9600,-39.6,81.9,-223.5,-170.1,-3.6,-164.7,-47.1,0,0,8928,0,112,0,
4.9633,-37.5,70.5,-229.8,-189.0,-8.1,-162.6,-49.5,0,0,8934,0,113,0,
4.9667,-38.4,68.7,-229.5,-191.1,-9.6,-164.7,-49.8,0,0,8940,0,114,0,
4.9700,-38.1,95.1,-209.4,-172.2,-2.1,-159.9,-37.8,0,0,8946,0,115,0,
4.9733,-41.4,109.8,-207.0,-151.2,5.1,-156.0,-24.0,0,0,8952,0,116,0,
4.9767,-36.0,80.4,-220.2,-171.0,-0.6,-158.7,-35.4,0,0,8958,0,117,0,
4.9800,-33.9,72.9,-228.6,-189.6,-7.2,-163.8,-50.7,0,0,8964,0,118,0,
4.9833,-32.7,71.7,-221.4,-183.6,-4.5,-160.8,-55.8,0,0,8970,0,119,0,
4.9867,-31.5,87.6,-217.8,-168.0,3.6,-156.3,-37.8,0,0,8976,0,120,0,
4.9900,-41.1,108.0,-209.1,-153.3,5.4,-161.1,-35.7,0,0,8982,0,121,0,
4.9933,-32.1,85.8,-222.3,-171.6,-1.2,-163.2,-48.0,0,0,8988,0,122,0,
4.9967,-36.3,63.6,-231.0,-191.4,-6.6,-168.0,-60.0,0,0,8994,0,123,0,
5.0000,-36.0,63.9,-230.1,-189.9,-5.7,-167.4,-55.2,0,0,9000,0,124,0,
5.0033,-45.6,78.0,-224.7,-177.0,-4.2,-167.1,-44.7,0,0,9006,0,125,0,
5.0067,-45.3,100.8,-213.0,-157.5,-3.9,-165.3,-39.0,0,0,9012,0,126,0,
5.0100,-27.3,77.7,-224.7,-171.3,-8.4,-168.0,-45.6,0,0,9018,0,127,0,
5.0133,-27.3,62.4,-234.3,-191.7,-11.7,-167.7,-54.6,0,0,9024,0,128,0,
5.0167,-31.8,67.2,-225.6,-184.5,-8.7,-166.8,-45.0,0,0,9030,0,129,0,
5.0200,-36.3,82.2,-223.2,-177.0,-7.5,-165.9,-40.5,0,0,9036,0,130,0,
5.0233,-32.1,107.4,-210.0,-154.2,1.8,-157.5,-31.8,0,0,9042,0,131,0,
5.0267,-28.8,89.1,-220.2,-171.6,-1.5,-156.6,-36.6,0,0,9048,0,132,0,
5.0300,-26.7,72.9,-228.6,-185.7,-7.8,-160.5,-42.6,0,0,9054,0,133,0,
5.0333,-26.4,72.6,-223.5,-186.9,-9.0,-162.3,-45.0,0,0,9060,0,134,0,
5.0367,-26.1,84.3,-212.1,-171.3,-3.3,-160.2,-37.8,0,0,9066,0,135,0,
5.0400,-39.6,101.4,-208.5,-151.8,-2.1,-163.2,-29.7,0,0,9072,0,136,0,
5.0433,-26.4,90.9,-210.6,-165.0,-4.5,-163.8,-36.6,0,0,9078,0,137,0,
5.0467,-17.4,73.5,-221.1,-181.8,-9.3,-164.1,-38.7,0,0,9084,0,138,0,
5.0500,-23.4,85.5,-215.7,-180.9,-7.5,-161.4,-34.2,0,0,9090,0,139,0,
5.0533,-29.7,90.9,-209.4,-167.4,-3.6,-159.3,-27.9,0,0,9096,0,140,0,
5.0567,-33.9,111.9,-198.9,-144.6,1.8,-159.3,-25.8,0,0,9102,0,141,0,
5.0600,-26.7,101.7,-206.4,-163.8,-7.8,-163.5,-34.2,0,0,9108,0,142,0,
5.0633,-17.1,64.2,-222.0,-183.0,-10.5,-162.3,-44.4,0,0,9114,0,143,0,
5.0667,-28.5,71.1,-223.2,-188.1,-11.7,-164.4,-42.3,0,0,9120,0,144,0,
5.0700,-31.2,93.6,-213.6,-173.7,-7.2,-163.2,-37.5,0,0,9126,0,145,0,
5.0733,-35.1,113.4,-201.6,-148.2,-2.4,-162.3,-25.5,0,0,9132,0,146,0,
5.0767,-25.5,95.1,-213.3,-163.2,-6.3,-164.1,-29.4,0,0,9138,0,147,0,
5.0800,-27.6,76.5,-226.2,-184.8,-15.9,-167.7,-37.8,0,0,9144,0,148,0,
5.0833,-21.9,84.0,-222.0,-187.8,-11.7,-165.6,-39.6,0,0,9150,0,149,0,
5.0867,-32.4,99.0,-213.0,-176.4,-8.7,-163.2,-31.5,0,0,9156,0,150,0,
5.0900,-33.0,117.6,-200.7,-153.3,0.0,-157.2,-18.3,0,0,9162,0,151,0,
5.0933,-33.9,86.7,-217.5,-175.2,-11.7,-167.4,-30.3,0,0,9168,0,152,0,
5.0967,-24.6,74.4,-222.0,-196.5,-13.2,-164.1,-31.5,0,0,9174,0,153,0,
5.1000,-28.5,71.4,-225.3,-197.4,-11.1,-167.4,-36.6,0,0,9180,0,154,0,
5.1033,-36.6,87.6,-215.7,-180.0,-10.2,-168.3,-33.6,0,0,9186,0,155,0,
5.1067,-33.6,113.4,-202.8,-153.9,1.2,-158.7,-19.5,0,0,9192,0,156,0,
5.1100,-30.6,98.4,-215.1,-173.1,-5.7,-164.4,-26.4,0,0,9198,0,157,0,
5.1133,-30.3,84.0,-226.5,-195.0,-12.0,-165.9,-40.2,0,0,9204,0,158,0,
5.1167,-29.4,85.8,-222.3,-194.1,-10.2,-160.8,-31.8,0,0,9210,0,159,0,
5.1200,-24.6,102.0,-209.1,-174.3,-3.0,-155.7,-27.0,0,0,9216,0,160,0,
5.1233,-32.4,102.3,-206.7,-155.7,1.5,-153.9,-19.2,0,0,9222,0,161,0,
5.1267,-22.8,84.6,-216.9,-171.9,-8.4,-161.4,-30.9,0,0,9228,0,162,0,
5.1300,-23.1,71.4,-225.9,-191.1,-11.4,-165.3,-35.7,0,0,9234,0,163,0,
5.1333,-25.8,74.1,-222.6,-187.2,-14.1,-168.9,-40.2,0,0,9240,0,164,0,
5.1367,-27.9,93.9,-210.9,-168.6,-5.7,-167.4,-32.4,0,0,9246,0,165,0,
5.1400,-34.2,116.1,-201.6,-149.7,-2.1,-164.7,-18.6,0,0,9252,0,166,0,
5.1433,-34.2,96.0,-215.7,-167.4,-8.4,-171.6,-39.0,0,0,9258,0,167,0,
5.1467,-26.1,78.0,-223.5,-190.2,-14.1,-171.0,-43.8,0,0,9264,0,168,0,
5.1500,-35.1,78.9,-221.7,-187.8,-10.8,-169.5,-44.7,0,0,9270,0,169,0,
5.1533,-45.6,85.8,-215.4,-180.3,-12.0,-170.4,-42.0,0,0,9276,0,170,0,
5.1567,-54.0,109.2,-213.0,-160.2,-10.8,-174.9,-39.9,0,0,9282,0,171,0,
5.1600,-48.9,87.0,-227.7,-181.8,-17.1,-181.5,-47.7,0,0,9288,0,172,0,
5.1633,-40.8,57.9,-234.3,-198.3,-17.4,-176.4,-53.4,0,0,9294,0,173,0,
5.1667,-54.0,60.0,-229.8,-195.0,-19.8,-182.7,-63.6,0,0,9300,0,174,0,
5.1700,-66.6,66.0,-224.7,-180.9,-16.5,-187.5,-67.5,0,0,9306,0,175,0,
5.1733,-63.3,93.6,-215.4,-161.7,-10.8,-178.2,-47.7,0,0,9312,0,176,0,
5.1767,-38.7,77.7,-228.6,-175.8,-14.1,-175.2,-39.3,0,0,9318,0,177,0,
5.1800,-31.5,70.5,-227.7,-194.1,-15.9,-171.9,-43.8,0,0,9324,0,178,0,
5.1833,-33.9,69.9,-225.9,-197.4,-13.8,-173.1,-47.1,0,0,9330,0,179,0,
5.1867,-37.8,81.6,-219.0,-184.5,-9.9,-170.1,-42.0,0,0,9336,0,180,0,
5.1900,-34.2,99.9,-219.3,-164.7,-6.0,-167.7,-27.6,0,0,9342,0,181,0,
5.1933,-35.4,84.0,-229.5,-181.8,-10.5,-172.5,-38.7,0,0,9348,0,182,0,
5.1967,-28.5,60.0,-237.9,-202.2,-12.9,-171.6,-46.2,0,0,9354,0,183,0,
5.2000,-26.1,62.4,-235.5,-201.3,-8.4,-168.0,-41.7,0,0,9360,0,184,0,
5.2033,-33.0,67.5,-229.5,-188.1,-6.0,-165.0,-38.1,0,0,9366,0,185,0,
5.2067,-32.4,87.3,-216.6,-164.4,2.7,-161.4,-20.7,0,0,9372,0,186,0,
5.2100,-17.1,72.3,-227.1,-180.3,-2.7,-163.2,-30.9,0,0,9378,0,187,0,
5.2133,-23.1,55.5,-235.8,-198.0,-9.0,-167.1,-39.3,0,0,9384,0,188,0,
5.2167,-31.5,51.3,-241.8,-199.8,-10.8,-167.7,-40.8,0,0,9390,0,189,0,
5.2200,-25.8,68.1,-228.0,-185.7,-4.2,-162.9,-34.5,0,0,9396,0,190,0,
5.2233,-28.8,88.5,-215.1,-163.8,-0.3,-161.1,-24.6,0,0,9402,0,191,0,
5.2267,-25.2,80.4,-223.5,-175.8,-5.7,-167.4,-33.3,0,0,9408,0,192,0,
5.2300,-17.7,62.4,-234.0,-192.9,-10.2,-167.4,-43.2,0,0,9414,0,193,0,
5.2333,-18.9,63.3,-231.6,-189.9,-6.3,-161.7,-36.6,0,0,9420,0,194,0,
5.2367,-25.8,77.4,-225.9,-177.9,-4.2,-162.9,-32.7,0,0,9426,0,195,0,
5.2400,-32.1,102.0,-220.5,-157.2,-2.4,-164.1,-26.7,0,0,9432,0,196,0,
5.2433,-26.7,66.3,-232.8,-174.0,-4.2,-167.7,-35.1,0,0,9438,0,197,0,
5.2467,-28.8,47.1,-242.1,-191.7,-12.9,-175.8,-47.4,0,0,9444,0,198,0,
5.2500,-25.5,51.6,-238.5,-189.9,-7.2,-169.2,-43.5,0,0,9450,0,199,0,
5.2533,-23.7,69.6,-226.5,-173.7,0.0,-160.5,-32.4,0,0,9456,0,200,0,
5.2567,-31.2,90.3,-216.9,-152.7,3.0,-162.0,-30.0,0,0,9462,0,201,0,
5.2600,-28.2,66.0,-230.7,-170.7,-3.9,-165.9,-38.1,0,0,9468,0,202,0,
5.2633,-28.2,50.1,-239.1,-189.3,-11.1,-167.1,-46.8,0,0,9474,0,203,0,
5.2667,-37.2,61.5,-237.3,-191.7,-9.3,-168.6,-47.1,0,0,9480,0,204,0,
5.2700,-39.3,80.1,-227.7,-176.7,-6.6,-168.0,-40.2,0,0,9486,0,205,0,
5.2733,-36.9,93.6,-225.0,-158.4,0.3,-165.9,-24.6,0,0,9492,0,206,0,
5.2767,-34.8,63.9,-239.1,-178.5,-7.5,-173.1,-39.0,0,0,9498,0,207,0,
5.2800,-34.5,46.5,-248.4,-198.9,-15.3,-180.3,-55.8,0,0,9504,0,208,0,
5.2833,-27.9,46.8,-245.1,-196.8,-9.9,-173.4,-48.3,0,0,9510,0,209,0,
5.2867,-37.2,52.2,-239.1,-178.8,-5.4,-172.5,-48.6,0,0,9516,0,210,0,
5.2900,-41.4,66.9,-229.8,-164.1,-9.6,-175.8,-46.5,0,0,9522,0,211,0,
5.2933,-36.3,53.7,-241.2,-179.7,-9.9,-175.8,-54.6,0,0,9528,0,212,0,
5.2967,-32.1,39.0,-246.0,-193.8,-14.4,-174.0,-57.6,0,0,9534,0,213,0,
5.3000,-25.5,54.0,-236.7,-191.1,-9.0,-170.4,-46.2,0,0,9540,0,214,0,
5.3033,-25.2,70.5,-223.2,-174.3,-4.2,-167.4,-41.7,0,0,9546,0,215,0,
5.3067,-24.6,85.8,-212.7,-153.3,1.5,-167.4,-29.7,0,0,9552,0,216,0,
5.3100,-22.2,76.2,-221.1,-171.3,-5.1,-164.7,-28.2,0,0,9558,0,217,0,
5.3133,-5.1,61.2,-226.5,-184.5,-7.5,-163.5,-34.5,0,0,9564,0,218,0,
5.3167,-11.7,59.1,-224.4,-183.6,-3.6,-160.2,-34.8,0,0,9570,0,219,0,
5.3200,-9.0,59.4,-223.8,-174.0,0.9,-158.1,-35.4,0,0,9576,0,220,0,
5.3233,-21.6,74.7,-219.0,-159.9,5.1,-157.2,-33.0,0,0,9582,0,221,0,
5.3267,-11.7,69.6,-222.9,-172.2,2.1,-162.3,-37.8,0,0,9588,0,222,0,
5.3300,-14.4,53.1,-234.3,-193.2,-4.5,-160.8,-42.9,0,0,9594,0,223,0,
5.3333,-8.1,48.6,-230.4,-187.5,-3.0,-156.9,-37.2,0,0,9600,0,224,0,
5.3367,-16.8,61.5,-227.4,-177.6,1.8,-159.3,-36.9,0,0,9606,0,225,0,
5.3400,-21.3,69.9,-224.1,-166.8,3.9,-162.0,-36.0,0,0,9612,0,226,0,
5.3433,-17.1,66.3,-229.2,-183.0,2.1,-163.8,-38.1,0,0,9618,0,227,0,
5.3467,-13.8,57.0,-234.0,-188.4,-1.2,-164.7,-40.8,0,0,9624,0,228,0,
5.3500,-13.5,69.0,-230.4,-189.3,-1.5,-162.6,-38.1,0,0,9630,0,229,0,
5.3533,-16.8,70.8,-222.6,-180.3,0.3,-160.8,-32.1,0,0,9636,0,230,0,
5.3567,-23.1,76.8,-219.9,-169.2,2.7,-158.1,-30.9,0,0,9642,0,231,0,
5.3600,-18.3,67.2,-227.4,-176.4,0.3,-159.3,-32.1,0,0,9648,0,232,0,
5.3633,-13.8,53.7,-235.8,-192.9,-2.1,-158.7,-30.9,0,0,9654,0,233,0,
5.3667,-18.9,57.3,-236.4,-193.5,-1.8,-154.2,-30.3,0,0,9660,0,234,0,
5.3700,-19.5,52.5,-242.7,-186.6,0.9,-157.2,-36.3,0,0,9666,0,235,0,
5.3733,-29.7,69.3,-225.9,-170.7,7.8,-155.4,-21.6,0,0,9672,0,236,0,
5.3767,-18.9,64.5,-233.1,-178.2,3.9,-150.9,-22.2,0,0,9678,0,237,0,
5.3800,-14.7,58.8,-234.0,-194.1,1.2,-154.8,-28.5,0,0,9684,0,238,0,
5.3833,-7.8,49.5,-239.7,-192.9,2.4,-150.6,-33.3,0,0,9690,0,239,0,
5.3867,-20.4,56.7,-235.8,-185.7,1.2,-150.6,-29.7,0,0,9696,0,240,0,
5.3900,-32.1,75.9,-226.5,-172.8,3.6,-150.0,-21.9,0,0,9702,0,241,0,
5.3933,-28.5,58.8,-236.7,-189.9,0.0,-156.3,-32.1,0,0,9708,0,242,0,
5.3967,-26.4,42.9,-244.8,-204.3,-7.2,-158.7,-38.1,0,0,9714,0,243,0,
5.4000,-20.7,43.5,-237.0,-195.3,-3.0,-150.6,-34.8,0,0,9720,0,244,0,
5.4033,-24.6,54.9,-234.6,-189.9,-0.9,-149.1,-30.0,0,0,9726,0,245,0,
5.4067,-26.7,72.9,-226.5,-171.9,2.1,-149.7,-24.9,0,0,9732,0,246,0,
5.4100,-23.7,65.1,-231.0,-182.1,-1.2,-154.8,-20.1,0,0,9738,0,247,0,
5.4133,-26.4,51.3,-238.5,-198.3,-4.5,-160.5,-32.7,0,0,9744,0,248,0,
5.4167,-17.7,54.9,-234.3,-198.9,-9.0,-161.4,-32.7,0,0,9750,0,249,0,
5.4200,-18.3,62.7,-227.7,-185.4,-4.5,-156.9,-32.4,0,0,9756,0,250,0,
5.4233,-25.5,75.6,-222.0,-172.8,-2.4,-153.0,-20.7,0,0,9762,0,251,0,
5.4267,-22.5,65.7,-227.7,-186.0,-1.2,-155.4,-30.0,0,0,9768,0,252,0,
5.4300,-16.8,50.7,-238.2,-198.9,-5.7,-155.4,-34.2,0,0,9774,0,253,0,
5.4333,-17.4,49.5,-238.5,-200.7,-3.9,-150.6,-21.0,0,0,9780,0,254,0,
5.4367,-21.0,63.3,-231.6,-185.7,1.2,-152.1,-23.1,0,0,9786,0,255,0,
5.4400,-24.6,79.2,-217.8,-171.9,5.1,-151.2,-16.2,0,0,9792,0,0,0,
5.4433,-15.0,65.4,-231.9,-181.8,0.3,-154.5,-21.0,0,0,9798,0,1,0,
5.4467,-17.4,51.9,-237.3,-197.1,-3.9,-157.2,-23.7,0,0,9804,0,2,0,
5.4500,-15.0,57.0,-234.0,-198.6,-3.9,-155.1,-21.6,0,0,9810,0,3,0,
5.4533,-21.9,71.7,-224.7,-186.3,-5.1,-152.7,-13.8,0,0,9816,0,4,0,
5.4567,-23.4,87.0,-220.2,-175.8,3.3,-149.4,-8.7,0,0,9822,0,5,0,
5.4600,-21.6,71.4,-232.5,-190.5,-3.6,-153.6,-13.5,0,0,9828,0,6,0,
5.4633,-19.2,53.7,-238.5,-197.4,-3.6,-155.1,-23.1,0,0,9834,0,7,0,
5.4667,-31.2,57.9,-234.6,-190.8,-5.7,-158.1,-31.8,0,0,9840,0,8,0,
5.4700,-37.5,52.2,-236.4,-189.6,-3.0,-159.0,-34.8,0,0,9846,0,9,0,
5.4733,-26.7,64.8,-231.3,-177.0,1.5,-154.2,-15.6,0,0,9852,0,10,0,
5.4767,-16.2,57.6,-238.5,-191.7,0.0,-150.3,-14.4,0,0,9858,0,11,0,
5.4800,-20.4,50.4,-244.2,-204.0,0.3,-147.3,-18.6,0,0,9864,0,12,0,
5.4833,-16.5,56.1,-237.3,-195.0,0.3,-147.9,-16.2,0,0,9870,0,13,0,
5.4867,-19.2,55.2,-239.1,-193.2,-1.8,-152.1,-19.8,0,0,9876,0,14,0,
5.4900,-32.1,61.2,-239.1,-185.7,-0.9,-150.9,-16.5,0,0,9882,0,15,0,
5.4933,-18.3,56.4,-242.7,-192.3,3.6,-149.1,-14.1,0,0,9888,0,16,0,
5.4967,-18.0,47.1,-242.1,-196.8,-1.5,-149.7,-17.1,0,0,9894,0,17,0,
5.5000,-20.1,48.9,-244.8,-201.6,0.6,-145.8,-15.0,0,0,9900,0,18,0,
5.5033,-25.5,53.1,-241.8,-192.3,0.6,-147.6,-15.3,0,0,9906,0,19,0,
5.5067,-24.3,56.4,-237.6,-183.6,0.9,-149.4,-16.8,0,0,9912,0,20,0,
5.5100,-23.1,41.7,-247.2,-197.4,-3.6,-149.7,-26.4,0,0,9918,0,21,0,
5.5133,-24.3,31.8,-249.6,-206.4,-2.4,-154.5,-26.7,0,0,9924,0,22,0,
5.5167,-23.1,38.1,-249.9,-203.7,-1.5,-152.1,-23.7,0,0,9930,0,23,0,
5.5200,-26.4,44.4,-244.8,-197.1,0.9,-150.9,-29.1,0,0,9936,0,24,0,
5.5233,-24.0,57.0,-242.7,-190.8,3.6,-151.2,-22.2,0,0,9942,0,25,0,
5.5267,-19.5,37.8,-245.7,-202.2,-2.7,-150.9,-32.1,0,0,9948,0,26,0,
5.5300,-13.5,22.8,-252.9,-207.9,-3.0,-153.3,-36.9,0,0,9954,0,27,0,
5.5333,-18.3,31.2,-252.6,-207.0,-2.4,-154.2,-34.2,0,0,9960,0,28,0,
5.5367,-23.1,37.5,-248.7,-200.4,1.2,-152.7,-30.3,0,0,9966,0,29,0,
5.5400,-28.5,50.1,-244.2,-190.5,1.8,-151.8,-27.9,0,0,9972,0,30,0,
5.5433,-27.3,36.0,-254.7,-204.6,-4.5,-158.4,-37.2,0,0,9978,0,31,0,
5.5467,-24.0,31.2,-255.3,-213.0,-6.0,-154.2,-37.8,0,0,9984,0,32,0,
5.5500,-26.1,37.8,-255.3,-211.5,-5.1,-157.8,-41.7,0,0,9990,0,33,0,
5.5533,-30.9,24.9,-256.8,-204.9,-7.8,-161.1,-42.6,0,0,9996,0,34,0,
5.5567,-44.4,27.3,-258.6,-196.8,-5.7,-164.1,-42.3,0,0,10002,0,35,0,
5.5600,-39.0,18.3,-263.1,-207.0,-7.5,-160.5,-50.7,0,0,10008,0,36,0,
5.5633,-34.2,15.3,-264.9,-217.5,-14.7,-173.1,-51.6,0,0,10014,0,37,0,
5.5667,-25.2,29.1,-257.7,-208.5,-14.1,-166.8,-46.8,0,0,10020,0,38,0,
5.5700,-29.4,32.4,-258.3,-201.9,-10.2,-171.0,-45.3,0,0,10026,0,39,0,
5.5733,-34.2,32.7,-252.6,-192.6,-9.3,-169.5,-41.1,0,0,10032,0,40,0,
5.5767,-32.7,9.0,-271.2,-207.9,-11.4,-175.2,-50.7,0,0,10038,0,41,0,
5.5800,-37.2,-4.2,-279.0,-220.2,-12.3,-177.3,-55.8,0,0,10044,0,42,0,
5.5833,-36.3,9.9,-272.1,-211.2,-11.4,-177.6,-54.9,0,0,10050,0,43,0,
5.5867,-33.6,29.4,-261.3,-197.7,-9.6,-174.0,-48.3,0,0,10056,0,44,0,
5.5900,-24.9,41.7,-254.7,-182.4,-8.1,-168.6,-38.7,0,0,10062,0,45,0,
5.5933,-23.1,29.1,-256.2,-196.8,-7.5,-167.4,-42.0,0,0,10068,0,46,0,
5.5967,-30.3,11.7,-268.2,-211.2,-11.1,-174.6,-48.9,0,0,10074,0,47,0,
5.6000,-21.6,20.1,-267.0,-207.6,-12.9,-173.7,-45.9,0,0,10080,0,48,0,
5.6033,-30.9,27.9,-263.7,-195.6,-11.1,-171.6,-41.7,0,0,10086,0,49,0,
5.6067,-34.8,21.9,-261.6,-186.3,-9.0,-165.0,-36.3,0,0,10092,0,50,0,
5.6100,-23.7,15.9,-270.6,-200.4,-16.5,-175.5,-41.1,0,0,10098,0,51,0,
5.6133,-21.9,15.3,-264.9,-207.0,-15.0,-170.1,-40.2,0,0,10104,0,52,0,
5.6167,-21.9,25.8,-264.0,-201.6,-14.4,-169.5,-36.0,0,0,10110,0,53,0,
5.6200,-23.7,39.0,-254.1,-190.8,-4.5,-164.1,-27.6,0,0,10116,0,54,0,
5.6233,-24.9,42.6,-255.6,-183.0,-6.6,-166.5,-30.3,0,0,10122,0,55,0,
5.6267,-21.0,33.9,-258.0,-193.5,-9.6,-165.3,-32.1,0,0,10128,0,56,0,
5.6300,-25.8,33.3,-264.9,-199.8,-13.8,-166.5,-36.3,0,0,10134,0,57,0,
5.6333,-26.7,26.1,-260.4,-203.7,-15.3,-167.1,-39.6,0,0,10140,0,58,0,
5.6367,-24.6,32.7,-264.6,-198.6,-8.7,-162.3,-34.2,0,0,10146,0,59,0,
5.6400,-15.3,55.8,-246.6,-181.8,-8.4,-162.0,-26.1,0,0,10152,0,60,0,
5.6433,-23.1,39.3,-259.2,-198.0,-12.6,-169.5,-32.1,0,0,10158,0,61,0,
5.6467,-20.1,23.4,-263.4,-204.6,-15.3,-170.7,-36.9,0,0,10164,0,62,0,
5.6500,-17.7,32.1,-260.4,-200.1,-14.4,-167.1,-39.9,0,0,10170,0,63,0,
5.6533,-12.0,48.6,-251.1,-192.0,-9.3,-156.3,-21.0,0,0,10176,0,64,0,
5.6567,-16.8,49.2,-253.2,-186.0,-8.4,-163.2,-21.9,0,0,10182,0,65,0,
5.6600,-11.7,37.2,-258.0,-196.2,-12.0,-162.6,-21.6,0,0,10188,0,66,0,
5.6633,-7.2,33.6,-256.2,-202.2,-13.8,-164.1,-26.4,0,0,10194,0,67,0,
5.6667,-9.9,34.8,-253.2,-197.4,-11.4,-159.9,-27.3,0,0,10200,0,68,0,
5.6700,-15.9,47.1,-250.2,-194.4,-6.9,-157.8,-18.3,0,0,10206,0,69,0,
5.6733,-17.4,55.5,-242.4,-181.8,-0.9,-151.2,-18.9,0,0,10212,0,70,0,
5.6767,-16.5,47.1,-249.6,-192.6,-4.5,-152.4,-16.8,0,0,10218,0,71,0,
5.6800,-12.3,42.3,-254.1,-201.3,-10.2,-160.5,-16.2,0,0,10224,0,72,0,
5.6833,-18.0,40.5,-252.0,-210.6,-8.4,-160.5,-30.9,0,0,10230,0,73,0,
5.6867,-18.0,51.9,-244.8,-195.3,-3.0,-155.7,-20.7,0,0,10236,0,74,0,
5.6900,-22.2,72.9,-238.2,-179.7,0.0,-154.5,-12.6,0,0,10242,0,75,0,
5.6933,-20.7,65.1,-245.4,-197.1,-9.0,-158.7,-24.9,0,0,10248,0,76,0,
5.6967,-15.3,34.2,-255.9,-212.7,-9.9,-159.9,-25.5,0,0,10254,0,77,0,
5.7000,-14.4,35.1,-254.4,-212.4,-6.9,-156.6,-27.0,0,0,10260,0,78,0,
5.7033,-22.2,49.8,-246.9,-198.9,-3.0,-150.6,-11.4,0,0,10266,0,79,0,
5.7067,-27.6,62.1,-239.7,-179.4,0.6,-149.1,-4.8,0,0,10272,0,80,0,
5.7100,-24.6,53.7,-245.7,-188.7,-0.6,-150.9,-13.8,0,0,10278,0,81,0,
5.7133,-11.7,36.6,-249.9,-204.9,-4.2,-153.6,-21.0,0,0,10284,0,82,0,
5.7167,-18.3,48.6,-249.9,-205.5,-5.1,-149.7,-19.5,0,0,10290,0,83,0,
5.7200,-27.0,48.0,-246.9,-195.9,-4.5,-155.4,-27.3,0,0,10296,0,84,0,
5.7233,-24.9,67.2,-234.9,-176.1,-2.4,-155.7,-21.9,0,0,10302,0,85,0,
5.7267,-21.6,62.1,-242.1,-185.7,-2.4,-152.4,-18.9,0,0,10308,0,86,0,
5.7300,-15.0,44.7,-250.2,-201.9,-5.4,-153.0,-20.7,0,0,10314,0,87,0,
5.7333,-13.2,48.3,-245.1,-199.8,-6.9,-153.6,-23.1,0,0,10320,0,88,0,
5.7367,-8.4,52.2,-240.0,-187.2,-4.2,-152.7,-11.4,0,0,10326,0,89,0,
5.7400,-13.2,66.3,-231.9,-169.8,2.1,-145.8,-1.2,0,0,10332,0,90,0,
5.7433,-13.2,65.7,-238.2,-183.3,-2.7,-147.3,-8.4,0,0,10338,0,91,0,
5.7467,-14.4,47.1,-248.7,-201.9,-8.7,-157.8,-25.8,0,0,10344,0,92,0,
5.7500,-12.0,33.9,-253.5,-203.7,-6.9,-153.0,-35.4,0,0,10350,0,93,0,
5.7533,-17.1,45.6,-245.4,-191.1,-4.5,-154.2,-27.9,0,0,10356,0,94,0,
5.7567,-13.8,67.5,-235.8,-173.7,-1.8,-159.0,-18.6,0,0,10362,0,95,0,
5.7600,-16.2,51.0,-250.2,-190.5,-3.6,-159.9,-26.7,0,0,10368,0,96,0,
5.7633,-5.1,45.0,-247.8,-202.8,-8.4,-154.5,-24.9,0,0,10374,0,97,0,
5.7667,-17.1,37.5,-254.4,-206.1,-8.4,-152.4,-24.3,0,0,10380,0,98,0,
5.7700,-9.6,48.9,-244.8,-190.8,-4.2,-148.5,-18.6,0,0,10386,0,99,0,
5.7733,-16.2,62.7,-237.3,-177.6,-1.5,-148.5,-10.5,0,0,10392,0,100,0,
5.7767,-9.0,48.0,-243.6,-186.6,-4.2,-153.3,-27.9,0,0,10398,0,101,0,
5.7800,-10.8,37.2,-250.8,-206.4,-13.5,-161.1,-30.3,0,0,10404,0,102,0,
5.7833,-4.8,44.7,-248.4,-202.8,-6.3,-152.1,-26.1,0,0,10410,0,103,0,
5.7867,-2.1,55.5,-241.5,-186.9,-1.8,-147.3,-14.4,0,0,10416,0,104,0,
5.7900,-10.5,70.2,-233.1,-170.7,4.5,-146.1,-8.7,0,0,10422,0,105,0,
5.7933,-9.0,56.1,-240.6,-184.8,0.6,-149.1,-16.8,0,0,10428,0,106,0,
5.7967,-5.4,41.4,-246.6,-197.1,-4.8,-152.1,-22.2,0,0,10434,0,107,0,
5.8000,1.2,35.7,-245.1,-201.6,-5.4,-152.7,-22.2,0,0,10440,0,108,0,
5.8033,-3.0,54.6,-238.2,-188.4,1.5,-149.4,-21.9,0,0,10446,0,109,0,
5.8067,-2.1,66.6,-225.6,-171.0,4.2,-146.7,-10.8,0,0,10452,0,110,0,
5.8100,5.1,47.1,-239.4,-182.7,-0.9,-148.8,-17.4,0,0,10458,0,111,0,
5.8133,6.0,47.7,-239.4,-201.0,-3.6,-152.7,-14.4,0,0,10464,0,112,0,
5.8167,3.9,61.5,-232.8,-192.9,0.6,-146.7,-8.4,0,0,10470,0,113,0,
5.8200,1.8,73.2,-225.0,-185.7,8.1,-139.5,-0.9,0,0,10476,0,114,0,
5.8233,3.3,82.5,-225.0,-166.8,14.1,-130.2,7.2,0,0,10482,0,115,0,
5.8267,8.4,58.8,-235.8,-186.9,5.1,-141.3,-1.8,0,0,10488,0,116,0,
5.8300,6.3,50.7,-240.9,-197.4,1.5,-138.0,-7.8,0,0,10494,0,117,0,
5.8333,10.5,57.6,-237.3,-196.8,6.6,-137.1,-3.0,0,0,10500,0,118,0,
5.8367,4.5,59.1,-231.9,-186.3,8.1,-133.5,-3.0,0,0,10506,0,119,0,
5.8400,-1.8,79.5,-227.1,-170.4,12.6,-137.4,5.7,0,0,10512,0,120,0,
5.8433,10.2,66.3,-232.2,-184.8,4.2,-139.2,-4.5,0,0,10518,0,121,0,
5.8467,9.6,55.8,-245.7,-204.0,2.1,-140.1,-8.4,0,0,10524,0,122,0,
5.8500,0.6,50.1,-249.3,-208.8,-1.5,-144.3,-15.0,0,0,10530,0,123,0,
5.8533,-6.3,52.8,-245.4,-196.2,3.3,-140.1,-14.4,0,0,10536,0,124,0,
5.8567,-9.0,74.4,-232.5,-173.1,7.8,-138.6,-3.9,0,0,10542,0,125,0,
5.8600,-4.8,60.3,-246.0,-188.1,3.0,-143.1,-7.8,0,0,10548,0,126,0,
5.8633,-1.8,38.7,-253.2,-206.4,0.3,-141.9,-16.8,0,0,10554,0,127,0,
5.8667,2.7,42.6,-251.4,-204.3,-0.9,-146.4,-18.9,0,0,10560,0,128,0,
5.8700,-2.7,51.6,-242.7,-190.8,3.3,-140.7,-12.9,0,0,10566,0,129,0,
5.8733,-5.1,72.0,-231.6,-174.0,6.6,-142.2,-8.1,0,0,10572,0,130,0,
5.8767,0.9,58.5,-239.1,-187.2,-1.2,-145.5,-12.6,0,0,10578,0,131,0,
5.8800,9.6,50.4,-249.3,-203.7,-2.7,-144.0,-15.0,0,0,10584,0,132,0,
5.8833,1.2,52.8,-246.3,-203.4,-2.1,-142.2,-17.1,0,0,10590,0,133,0,
5.8867,5.4,71.7,-241.8,-187.8,5.4,-131.1,-8.4,0,0,10596,0,134,0,
5.8900,5.1,71.4,-232.5,-169.2,11.1,-128.4,7.2,0,0,10602,0,135,0,
5.8933,-0.3,60.3,-245.4,-188.1,3.0,-136.8,-9.9,0,0,10608,0,136,0,
5.8967,5.7,45.9,-250.5,-203.1,-1.2,-140.4,-17.1,0,0,10614,0,137,0,
5.9000,6.6,51.3,-249.6,-201.3,2.1,-136.5,-15.0,0,0,10620,0,138,0,
5.9033,8.7,60.9,-240.9,-193.2,9.0,-131.7,-7.8,0,0,10626,0,139,0,
