Time,LE,F4,C4,P4,P3,C3,F3,Pz,Trigger,Time_Offset,ADC_Status,ADC_Sequence,Event,Comments
0.0033,157.8,114.3,-355.2,-12.9,73.2,-175.5,-39.6,0,0,6,0,49,0,
0.0067,162.0,57.9,-392.1,-76.2,52.5,-181.2,-69.9,0,0,12,0,50,0,
0.0100,166.2,36.9,-395.7,-100.8,44.7,-189.0,-89.1,0,0,18,0,51,0,
0.0133,153.3,74.4,-374.1,-64.8,58.2,-181.2,-68.4,0,0,24,0,52,0,
0.0167,147.9,119.1,-350.7,-12.0,73.8,-174.6,-47.1,0,0,30,0,53,0,
0.0200,148.5,114.0,-360.6,-7.2,70.8,-175.2,-42.9,0,0,36,0,54,0,
0.0233,157.2,45.9,-398.4,-80.1,51.3,-185.1,-81.3,0,0,42,0,55,0,
0.0267,159.3,36.6,-402.9,-102.6,52.5,-180.3,-83.1,0,0,48,0,56,0,
0.0300,155.4,69.9,-376.5,-67.8,62.4,-173.7,-57.6,0,0,54,0,57,0,
0.0333,147.3,120.3,-350.1,-14.7,82.2,-168.3,-36.9,0,0,60,0,58,0,
0.0367,150.0,120.6,-355.5,-7.8,79.5,-168.0,-35.7,0,0,66,0,59,0,
0.0400,163.5,60.0,-394.8,-85.5,54.3,-182.7,-75.0,0,0,72,0,60,0,
0.0433,167.1,54.9,-385.2,-97.2,55.5,-178.8,-74.7,0,0,78,0,61,0,
0.0467,152.7,78.3,-373.8,-70.2,63.0,-177.0,-61.8,0,0,84,0,62,0,
0.0500,153.6,128.4,-340.8,-5.7,80.7,-163.5,-33.3,0,0,90,0,63,0,
0.0533,153.9,119.7,-353.1,-9.0,75.6,-172.5,-35.7,0,0,96,0,64,0,
0.0567,170.7,54.6,-390.0,-81.9,52.8,-181.5,-64.8,0,0,102,0,65,0,
0.0600,168.9,34.2,-396.3,-107.7,51.6,-179.4,-78.0,0,0,108,0,66,0,
0.0633,163.2,69.9,-372.3,-67.5,66.9,-170.7,-59.1,0,0,114,0,67,0,
0.0667,140.1,124.8,-348.3,-7.8,84.6,-165.6,-31.2,0,0,120,0,68,0,
0.0700,154.2,115.5,-352.8,-10.8,75.9,-177.0,-32.4,0,0,126,0,69,0,
0.0733,163.2,53.7,-391.5,-81.0,53.7,-183.6,-75.9,0,0,132,0,70,0,
0.0767,162.3,36.3,-397.2,-104.7,52.2,-180.0,-82.2,0,0,138,0,71,0,
0.0800,164.4,69.9,-374.7,-70.5,64.5,-183.6,-65.1,0,0,144,0,72,0,
0.0833,153.6,122.1,-345.0,-11.4,83.1,-168.9,-30.9,0,0,150,0,73,0,
0.0867,155.7,116.1,-357.3,-13.2,75.9,-175.8,-36.3,0,0,156,0,74,0,
0.0900,159.6,39.9,-402.9,-99.6,50.1,-188.1,-72.9,0,0,162,0,75,0,
0.0933,164.4,32.1,-401.7,-115.2,48.9,-178.5,-74.1,0,0,168,0,76,0,
0.0967,147.3,64.8,-380.1,-76.5,66.3,-173.1,-62.1,0,0,174,0,77,0,
0.1000,140.4,118.5,-349.5,-13.2,78.6,-177.3,-30.3,0,0,180,0,78,0,
0.1033,154.5,115.2,-356.1,-14.7,79.8,-176.1,-32.1,0,0,186,0,79,0,
0.1067,155.1,44.4,-400.2,-93.9,57.3,-183.6,-71.4,0,0,192,0,80,0,
0.1100,159.9,32.7,-405.3,-114.3,51.6,-186.6,-79.8,0,0,198,0,81,0,
0.1133,147.3,72.0,-379.8,-75.0,67.2,-177.6,-61.5,0,0,204,0,82,0,
0.1167,140.4,120.9,-349.2,-13.2,84.3,-171.6,-34.5,0,0,210,0,83,0,
0.1200,144.3,105.3,-367.5,-17.4,75.3,-186.3,-38.7,0,0,216,0,84,0,
0.1233,159.0,48.3,-400.8,-91.5,54.9,-188.1,-66.6,0,0,222,0,85,0,
0.1267,154.5,29.1,-405.0,-111.0,53.1,-184.2,-75.3,0,0,228,0,86,0,
0.1300,140.7,60.9,-383.7,-81.0,64.8,-185.4,-64.5,0,0,234,0,87,0,
0.1333,138.0,121.8,-349.2,-9.9,80.7,-171.9,-22.2,0,0,240,0,88,0,
0.1367,145.5,117.6,-358.2,-13.5,74.7,-177.9,-31.5,0,0,246,0,89,0,
0.1400,156.6,53.4,-396.6,-90.6,55.2,-188.1,-66.0,0,0,252,0,90,0,
0.1433,154.2,37.5,-398.7,-111.6,51.0,-187.5,-79.8,0,0,258,0,91,0,
0.1467,150.9,73.8,-374.1,-72.6,63.0,-178.8,-66.0,0,0,264,0,92,0,
0.1500,130.8,126.3,-346.5,-12.0,80.7,-173.7,-37.2,0,0,270,0,93,0,
0.1533,142.5,120.0,-357.0,-9.9,71.7,-173.1,-30.6,0,0,276,0,94,0,
0.1567,163.5,56.4,-391.2,-88.5,49.5,-182.7,-67.5,0,0,282,0,95,0,
0.1600,168.3,45.6,-392.1,-110.1,50.1,-183.9,-74.4,0,0,288,0,96,0,
0.1633,160.8,78.9,-369.3,-70.8,66.6,-174.3,-58.5,0,0,294,0,97,0,
0.1667,151.5,143.1,-334.8,-6.9,87.6,-164.4,-26.4,0,0,300,0,98,0,
0.1700,147.6,128.1,-349.5,-9.0,79.5,-172.5,-28.5,0,0,306,0,99,0,
0.1733,170.4,60.0,-390.3,-88.5,58.2,-178.2,-60.9,0,0,312,0,100,0,
0.1767,160.8,54.3,-390.6,-107.1,54.9,-178.5,-58.2,0,0,318,0,101,0,
0.1800,157.5,83.4,-366.6,-70.2,66.9,-169.8,-43.8,0,0,324,0,102,0,
0.1833,138.3,127.5,-341.1,-4.8,79.5,-169.5,-31.5,0,0,330,0,103,0,
0.1867,140.7,124.5,-351.9,-6.9,78.3,-174.6,-28.8,0,0,336,0,104,0,
0.1900,148.8,59.1,-395.4,-86.1,51.3,-187.5,-69.9,0,0,342,0,105,0,
0.1933,157.2,43.2,-394.8,-106.2,54.6,-177.6,-72.0,0,0,348,0,106,0,
0.1967,156.0,76.2,-375.0,-70.5,72.0,-167.4,-49.2,0,0,354,0,107,0,
0.2000,136.8,129.3,-341.1,-6.3,85.8,-169.2,-19.2,0,0,360,0,108,0,
0.2033,138.6,124.5,-352.8,-4.2,87.0,-169.8,-24.3,0,0,366,0,109,0,
0.2067,160.8,57.3,-393.0,-86.7,58.5,-179.1,-60.9,0,0,372,0,110,0,
0.2100,161.7,49.2,-390.9,-107.1,59.7,-172.8,-61.2,0,0,378,0,111,0,
0.2133,157.8,79.5,-369.3,-69.6,70.8,-175.2,-54.9,0,0,384,0,112,0,
0.2167,137.7,131.7,-341.7,-6.0,87.3,-167.7,-22.5,0,0,390,0,113,0,
0.2200,137.7,133.8,-350.1,-5.1,83.4,-165.6,-16.2,0,0,396,0,114,0,
0.2233,152.4,60.3,-393.3,-90.9,57.0,-186.0,-69.0,0,0,402,0,115,0,
0.2267,150.9,39.3,-393.6,-111.6,57.6,-177.3,-63.9,0,0,408,0,116,0,
0.2300,137.1,74.4,-372.0,-71.4,73.8,-173.7,-52.8,0,0,414,0,117,0,
0.2333,145.2,125.4,-342.0,-15.6,87.6,-164.1,-34.8,0,0,420,0,118,0,
0.2367,143.1,133.2,-345.9,-12.9,83.7,-170.1,-23.7,0,0,426,0,119,0,
0.2400,152.1,64.8,-384.3,-87.9,59.1,-179.1,-57.9,0,0,432,0,120,0,
0.2433,153.3,49.2,-387.9,-108.6,60.6,-175.2,-68.4,0,0,438,0,121,0,
0.2467,144.6,86.7,-365.4,-70.2,72.0,-168.0,-45.3,0,0,444,0,122,0,
0.2500,131.7,133.2,-340.2,-16.2,88.2,-168.0,-27.6,0,0,450,0,123,0,
0.2533,137.1,127.8,-351.3,-17.7,81.6,-169.2,-22.5,0,0,456,0,124,0,
0.2567,154.2,65.4,-390.6,-91.5,60.0,-180.6,-61.2,0,0,462,0,125,0,
0.2600,158.1,48.3,-390.3,-108.3,60.0,-171.3,-62.7,0,0,468,0,126,0,
0.2633,132.9,81.6,-373.2,-79.8,70.8,-169.5,-56.7,0,0,474,0,127,0,
0.2667,131.1,129.6,-347.7,-21.9,83.7,-164.1,-21.9,0,0,480,0,128,0,
0.2700,137.7,129.6,-354.0,-24.0,79.5,-169.8,-24.3,0,0,486,0,129,0,
0.2733,155.4,61.2,-389.1,-92.1,59.4,-181.5,-53.1,0,0,492,0,130,0,
0.2767,157.8,57.3,-384.9,-106.2,62.7,-175.5,-59.4,0,0,498,0,131,0,
0.2800,148.2,86.1,-363.3,-70.5,73.5,-165.0,-44.4,0,0,504,0,132,0,
0.2833,147.9,134.4,-335.1,-17.4,85.5,-158.1,-12.9,0,0,510,0,133,0,
0.2867,147.3,118.5,-354.3,-20.7,79.8,-164.7,-19.8,0,0,516,0,134,0,
0.2900,162.6,60.0,-386.7,-89.4,56.4,-180.6,-58.8,0,0,522,0,135,0,
0.2933,155.1,51.3,-390.0,-104.7,59.1,-165.6,-55.8,0,0,528,0,136,0,
0.2967,151.5,77.1,-368.1,-74.4,67.2,-168.9,-51.0,0,0,534,0,137,0,
0.3000,138.0,119.1,-348.3,-18.9,79.2,-171.3,-23.7,0,0,540,0,138,0,
0.3033,149.4,119.1,-352.2,-16.8,77.1,-165.6,-25.2,0,0,546,0,139,0,
0.3067,156.3,61.2,-384.9,-83.7,60.0,-174.3,-54.0,0,0,552,0,140,0,
0.3100,165.0,64.2,-381.0,-100.8,59.1,-167.7,-51.6,0,0,558,0,141,0,
0.3133,160.2,85.2,-363.9,-70.2,73.5,-161.4,-44.7,0,0,564,0,142,0,
0.3167,148.5,132.9,-333.6,-14.1,85.5,-160.2,-17.1,0,0,570,0,143,0,
0.3200,149.4,131.4,-342.6,-13.5,81.6,-160.2,-18.3,0,0,576,0,144,0,
0.3233,163.5,70.2,-380.7,-86.1,63.3,-171.6,-56.4,0,0,582,0,145,0,
0.3267,163.8,66.3,-375.9,-103.8,60.3,-166.8,-57.3,0,0,588,0,146,0,
0.3300,157.2,92.4,-357.6,-72.9,74.4,-158.1,-39.3,0,0,594,0,147,0,
0.3333,149.4,141.9,-329.1,-17.7,86.4,-165.0,-19.2,0,0,600,0,148,0,
0.3367,151.5,138.9,-339.0,-12.3,87.0,-159.9,-16.8,0,0,606,0,149,0,
0.3400,161.4,77.4,-379.8,-90.0,58.5,-173.1,-56.4,0,0,612,0,150,0,
0.3433,158.4,63.0,-377.7,-105.6,63.0,-166.2,-59.4,0,0,618,0,151,0,
0.3467,155.7,93.6,-357.3,-75.6,74.4,-167.7,-47.1,0,0,624,0,152,0,
0.3500,148.8,133.5,-331.8,-20.4,87.6,-159.0,-23.4,0,0,630,0,153,0,
0.3533,143.4,128.4,-347.7,-21.6,80.1,-172.2,-29.4,0,0,636,0,154,0,
0.3567,162.3,68.7,-381.0,-90.9,63.3,-174.0,-58.5,0,0,642,0,155,0,
0.3600,163.5,59.4,-383.1,-106.8,61.5,-175.2,-67.5,0,0,648,0,156,0,
0.3633,154.5,81.9,-365.4,-72.9,72.3,-171.6,-53.1,0,0,654,0,157,0,
0.3667,146.7,135.0,-333.3,-15.0,86.4,-166.2,-26.7,0,0,660,0,158,0,
0.3700,140.4,127.8,-348.0,-18.3,82.2,-170.1,-31.2,0,0,666,0,159,0,
0.3733,154.8,61.2,-391.5,-91.8,62.7,-181.5,-72.9,0,0,672,0,160,0,
0.3767,149.7,52.8,-389.1,-110.7,60.3,-176.4,-73.5,0,0,678,0,161,0,
0.3800,148.2,72.6,-370.5,-78.6,69.9,-172.8,-61.2,0,0,684,0,162,0,
0.3833,138.9,121.2,-340.2,-23.1,85.5,-162.3,-32.1,0,0,690,0,163,0,
0.3867,146.4,123.0,-348.0,-16.8,79.2,-173.7,-30.6,0,0,696,0,164,0,
0.3900,160.5,65.7,-385.2,-90.6,61.5,-176.7,-56.4,0,0,702,0,165,0,
0.3933,155.1,53.1,-387.9,-105.6,58.5,-181.5,-73.2,0,0,708,0,166,0,
0.3967,159.9,81.3,-365.4,-69.6,73.8,-171.9,-54.9,0,0,714,0,167,0,
0.4000,142.8,128.1,-340.5,-15.6,87.6,-164.1,-23.7,0,0,720,0,168,0,
0.4033,144.3,120.6,-351.6,-18.0,84.9,-172.2,-34.8,0,0,726,0,169,0,
0.4067,156.6,65.7,-384.0,-84.3,62.7,-181.5,-63.9,0,0,732,0,170,0,
0.4100,161.4,52.8,-383.1,-102.3,61.2,-177.3,-72.6,0,0,738,0,171,0,
0.4133,153.6,78.6,-363.6,-69.0,72.9,-172.5,-54.6,0,0,744,0,172,0,
0.4167,150.6,123.6,-336.9,-12.9,88.2,-163.5,-26.4,0,0,750,0,173,0,
0.4200,153.3,123.3,-345.9,-14.4,82.8,-173.1,-30.3,0,0,756,0,174,0,
0.4233,170.7,70.2,-377.7,-82.5,65.7,-174.3,-55.5,0,0,762,0,175,0,
0.4267,166.5,60.0,-377.7,-97.2,64.2,-171.0,-60.0,0,0,768,0,176,0,
0.4300,162.0,85.8,-359.1,-69.6,74.4,-171.6,-50.7,0,0,774,0,177,0,
0.4333,155.1,134.1,-333.3,-16.5,87.3,-158.7,-25.5,0,0,780,0,178,0,
0.4367,153.9,130.8,-343.5,-17.4,84.6,-169.2,-27.0,0,0,786,0,179,0,
0.4400,164.4,65.4,-377.1,-90.0,63.3,-181.2,-60.0,0,0,792,0,180,0,
0.4433,174.3,66.3,-370.5,-100.5,63.0,-176.7,-60.3,0,0,798,0,181,0,
0.4467,175.2,101.1,-347.7,-68.7,73.5,-164.1,-39.3,0,0,804,0,182,0,
0.4500,162.0,142.8,-325.2,-17.4,90.3,-162.0,-20.7,0,0,810,0,183,0,
0.4533,163.2,130.8,-336.9,-18.6,83.7,-164.4,-22.5,0,0,816,0,184,0,
0.4567,166.2,63.9,-377.4,-85.2,58.8,-183.3,-64.5,0,0,822,0,185,0,
0.4600,164.7,55.8,-379.2,-104.7,58.2,-186.3,-76.2,0,0,828,0,186,0,
0.4633,150.0,80.1,-363.6,-71.7,71.1,-180.3,-60.0,0,0,834,0,187,0,
0.4667,141.6,129.0,-336.0,-21.0,85.8,-171.6,-24.0,0,0,840,0,188,0,
0.4700,146.7,122.7,-344.1,-16.2,79.2,-177.9,-34.5,0,0,846,0,189,0,
0.4733,153.9,54.9,-382.8,-85.5,60.3,-186.6,-65.4,0,0,852,0,190,0,
0.4767,149.4,39.3,-385.2,-104.1,57.3,-185.4,-78.0,0,0,858,0,191,0,
0.4800,158.7,77.4,-362.1,-72.6,68.7,-177.6,-57.9,0,0,864,0,192,0,
0.4833,147.3,115.8,-337.2,-18.3,81.6,-177.0,-37.8,0,0,870,0,193,0,
0.4867,149.4,113.1,-345.3,-18.3,82.2,-169.8,-33.9,0,0,876,0,194,0,
0.4900,166.2,54.3,-382.2,-88.8,60.0,-183.9,-66.0,0,0,882,0,195,0,
0.4933,159.9,49.2,-381.0,-107.1,60.0,-180.0,-69.6,0,0,888,0,196,0,
0.4967,161.1,79.2,-361.2,-76.2,72.0,-171.9,-51.9,0,0,894,0,197,0,
0.5000,148.2,116.4,-339.9,-25.5,87.0,-167.4,-27.6,0,0,900,0,198,0,
0.5033,151.2,110.1,-351.0,-20.7,83.1,-179.1,-30.9,0,0,906,0,199,0,
0.5067,158.1,59.1,-382.2,-88.5,62.7,-184.2,-57.6,0,0,912,0,200,0,
0.5100,163.5,51.3,-381.0,-105.6,60.0,-185.7,-59.7,0,0,918,0,201,0,
0.5133,155.4,77.4,-362.1,-74.1,70.5,-175.8,-48.6,0,0,924,0,202,0,
0.5167,146.7,120.9,-338.7,-16.2,86.7,-170.1,-22.5,0,0,930,0,203,0,
0.5200,148.8,111.0,-348.0,-16.2,82.8,-179.7,-27.9,0,0,936,0,204,0,
0.5233,159.6,52.8,-383.7,-83.7,60.3,-187.5,-56.4,0,0,942,0,205,0,
0.5267,162.6,42.9,-383.7,-100.5,61.8,-186.3,-69.0,0,0,948,0,206,0,
0.5300,150.0,69.3,-369.0,-72.6,72.3,-181.8,-56.1,0,0,954,0,207,0,
0.5333,138.6,112.5,-343.2,-21.9,86.7,-176.1,-31.5,0,0,960,0,208,0,
0.5367,144.9,110.7,-355.2,-22.5,79.8,-182.1,-34.8,0,0,966,0,209,0,
0.5400,149.4,55.2,-388.8,-91.8,57.6,-192.3,-69.3,0,0,972,0,210,0,
0.5433,149.1,37.8,-391.8,-108.0,60.6,-188.7,-69.6,0,0,978,0,211,0,
0.5467,152.7,68.7,-370.2,-74.7,75.3,-175.2,-48.0,0,0,984,0,212,0,
0.5500,148.2,114.3,-345.9,-25.2,84.6,-173.4,-24.9,0,0,990,0,213,0,
0.5533,155.4,106.5,-357.9,-28.2,83.1,-175.8,-23.7,0,0,996,0,214,0,
0.5567,162.9,53.1,-389.1,-91.5,66.9,-184.8,-52.8,0,0,1002,0,215,0,
0.5600,163.8,52.2,-387.6,-106.2,66.0,-180.6,-60.3,0,0,1008,0,216,0,
0.5633,160.8,80.7,-367.2,-76.5,75.9,-179.4,-50.7,0,0,1014,0,217,0,
0.5667,149.1,120.9,-340.2,-25.5,92.1,-169.8,-21.6,0,0,1020,0,218,0,
0.5700,151.5,111.9,-351.9,-28.5,84.9,-174.6,-28.5,0,0,1026,0,219,0,
0.5733,170.4,61.5,-381.9,-90.9,66.0,-180.9,-54.3,0,0,1032,0,220,0,
0.5767,173.4,56.4,-378.0,-101.4,65.4,-176.7,-56.4,0,0,1038,0,221,0,
0.5800,168.3,83.4,-360.3,-71.1,76.2,-169.8,-42.0,0,0,1044,0,222,0,
0.5833,159.6,119.7,-338.1,-18.3,90.6,-165.0,-23.1,0,0,1050,0,223,0,
0.5867,160.8,113.4,-349.2,-21.0,85.8,-170.4,-31.2,0,0,1056,0,224,0,
0.5900,161.1,54.9,-388.5,-87.0,64.8,-181.5,-63.0,0,0,1062,0,225,0,
0.5933,164.4,48.6,-385.8,-104.1,66.9,-180.3,-62.7,0,0,1068,0,226,0,
0.5967,158.7,72.9,-368.7,-79.2,74.7,-171.6,-51.9,0,0,1074,0,227,0,
0.6000,158.1,115.8,-343.2,-26.4,87.3,-165.0,-28.2,0,0,1080,0,228,0,
0.6033,162.9,110.1,-355.2,-24.6,83.4,-170.4,-33.9,0,0,1086,0,229,0,
0.6067,172.2,60.9,-385.8,-86.7,68.4,-175.8,-60.3,0,0,1092,0,230,0,
0.6100,173.1,47.7,-384.3,-105.6,69.0,-168.6,-60.3,0,0,1098,0,231,0,
0.6133,171.6,71.1,-368.7,-74.4,77.7,-168.6,-52.5,0,0,1104,0,232,0,
0.6167,155.1,114.0,-345.3,-26.1,88.8,-168.3,-34.5,0,0,1110,0,233,0,
0.6200,158.1,102.9,-354.9,-26.4,84.3,-170.4,-36.9,0,0,1116,0,234,0,
0.6233,173.7,51.6,-390.9,-88.2,67.2,-177.3,-62.1,0,0,1122,0,235,0,
0.6267,168.3,46.8,-390.0,-102.9,64.8,-180.9,-74.1,0,0,1128,0,236,0,
0.6300,163.5,67.2,-375.3,-78.3,73.8,-171.6,-60.9,0,0,1134,0,237,0,
0.6333,149.7,111.9,-350.7,-28.2,89.7,-161.4,-35.1,0,0,1140,0,238,0,
0.6367,169.8,102.6,-359.1,-27.6,84.9,-170.1,-37.2,0,0,1146,0,239,0,
0.6400,172.2,47.1,-391.5,-84.6,65.4,-178.5,-64.5,0,0,1152,0,240,0,
0.6433,175.5,39.9,-393.9,-103.5,64.2,-179.7,-73.2,0,0,1158,0,241,0,
0.6467,170.1,68.1,-371.4,-70.8,72.6,-170.4,-54.9,0,0,1164,0,242,0,
0.6500,161.1,107.4,-349.8,-25.8,84.0,-167.1,-39.0,0,0,1170,0,243,0,
0.6533,157.5,101.4,-361.2,-27.9,81.0,-169.8,-42.3,0,0,1176,0,244,0,
0.6567,173.1,47.4,-392.4,-92.1,62.7,-181.2,-73.2,0,0,1182,0,245,0,
0.6600,171.9,44.1,-392.4,-106.8,60.3,-181.5,-78.6,0,0,1188,0,246,0,
0.6633,165.0,70.5,-373.8,-76.5,71.7,-173.4,-61.2,0,0,1194,0,247,0,
0.6667,160.8,104.7,-349.5,-24.3,87.3,-166.5,-38.1,0,0,1200,0,248,0,
0.6700,164.1,95.1,-361.2,-24.9,82.2,-170.4,-39.3,0,0,1206,0,249,0,
0.6733,171.0,43.8,-392.4,-88.5,64.8,-175.2,-67.2,0,0,1212,0,250,0,
0.6767,171.0,39.6,-388.5,-100.5,65.7,-172.5,-70.2,0,0,1218,0,251,0,
0.6800,165.9,63.3,-369.9,-73.5,71.7,-172.8,-58.8,0,0,1224,0,252,0,
0.6833,155.7,102.9,-347.4,-24.6,84.3,-164.4,-37.5,0,0,1230,0,253,0,
0.6867,151.8,98.1,-356.7,-27.9,78.9,-169.8,-38.1,0,0,1236,0,254,0,
0.6900,168.9,47.1,-389.4,-86.4,61.5,-175.8,-68.4,0,0,1242,0,255,0,
0.6933,171.3,45.6,-386.4,-100.8,57.9,-179.7,-67.8,0,0,1248,0,0,0,
0.6967,156.3,72.3,-369.0,-71.7,69.9,-166.8,-53.7,0,0,1254,0,1,0,
0.7000,155.4,114.6,-348.3,-21.6,81.0,-167.4,-36.0,0,0,1260,0,2,0,
0.7033,155.7,111.9,-356.1,-23.1,81.9,-162.6,-34.5,0,0,1266,0,3,0,
0.7067,176.1,65.4,-381.3,-81.0,67.8,-166.5,-54.3,0,0,1272,0,4,0,
0.7100,170.4,56.7,-383.1,-94.2,64.5,-169.2,-61.5,0,0,1278,0,5,0,
0.7133,165.6,78.6,-365.1,-69.3,72.9,-164.7,-48.9,0,0,1284,0,6,0,
0.7167,146.4,117.0,-348.6,-25.5,86.1,-155.7,-33.0,0,0,1290,0,7,0,
0.7200,161.7,118.5,-350.7,-26.7,81.3,-162.9,-29.7,0,0,1296,0,8,0,
0.7233,166.5,61.2,-385.5,-83.1,64.8,-163.8,-54.6,0,0,1302,0,9,0,
0.7267,160.2,49.5,-386.4,-95.1,64.5,-163.5,-62.4,0,0,1308,0,10,0,
0.7300,153.6,81.9,-366.6,-67.2,74.7,-153.0,-44.7,0,0,1314,0,11,0,
0.7333,158.4,137.7,-333.3,-18.0,89.1,-147.3,-12.6,0,0,1320,0,12,0,
0.7367,162.6,130.2,-345.6,-17.1,83.7,-160.8,-18.9,0,0,1326,0,13,0,
0.7400,157.2,71.7,-379.8,-80.4,66.9,-166.2,-51.9,0,0,1332,0,14,0,
0.7433,155.4,61.2,-383.4,-97.2,66.9,-165.3,-61.8,0,0,1338,0,15,0,
0.7467,164.1,88.5,-362.4,-65.4,80.4,-151.2,-37.8,0,0,1344,0,16,0,
0.7500,144.3,126.3,-339.9,-18.0,86.4,-156.6,-27.6,0,0,1350,0,17,0,
0.7533,146.1,119.1,-352.2,-15.6,84.0,-162.9,-30.9,0,0,1356,0,18,0,
0.7567,165.0,83.1,-375.0,-75.0,67.8,-165.0,-45.9,0,0,1362,0,19,0,
0.7600,162.3,66.3,-378.6,-90.9,64.8,-165.3,-55.8,0,0,1368,0,20,0,
0.7633,150.0,89.1,-363.9,-66.6,73.8,-163.5,-47.7,0,0,1374,0,21,0,
0.7667,138.3,131.1,-340.2,-18.6,87.9,-156.6,-23.1,0,0,1380,0,22,0,
0.7700,142.5,120.3,-351.6,-21.6,82.5,-160.5,-31.5,0,0,1386,0,23,0,
0.7733,160.8,79.8,-375.0,-78.0,65.7,-168.3,-51.9,0,0,1392,0,24,0,
0.7767,158.1,71.7,-377.4,-95.4,62.1,-167.4,-55.5,0,0,1398,0,25,0,
0.7800,153.3,95.7,-361.8,-69.6,75.3,-158.7,-45.3,0,0,1404,0,26,0,
0.7833,138.3,139.2,-339.3,-19.8,89.1,-151.8,-21.6,0,0,1410,0,27,0,
0.7867,145.8,141.0,-343.2,-13.2,84.3,-158.1,-19.2,0,0,1416,0,28,0,
0.7900,151.8,90.6,-372.0,-76.5,67.5,-163.5,-42.3,0,0,1422,0,29,0,
0.7933,152.1,87.6,-370.8,-88.8,69.6,-160.5,-47.4,0,0,1428,0,30,0,
0.7967,143.7,107.1,-355.5,-63.3,78.0,-152.1,-29.1,0,0,1434,0,31,0,
0.8000,135.9,150.6,-335.1,-21.3,87.9,-152.1,-11.1,0,0,1440,0,32,0,
0.8033,137.7,143.4,-343.2,-17.1,85.2,-153.6,-14.7,0,0,1446,0,33,0,
0.8067,144.6,96.6,-371.7,-78.9,70.8,-160.5,-34.5,0,0,1452,0,34,0,
0.8100,141.6,77.4,-381.3,-97.8,68.7,-158.4,-40.5,0,0,1458,0,35,0,
0.8133,138.6,106.2,-361.2,-72.6,75.3,-159.0,-26.4,0,0,1464,0,36,0,
0.8167,123.9,141.0,-341.7,-22.2,90.9,-149.4,-8.1,0,0,1470,0,37,0,
0.8200,126.9,135.0,-350.1,-20.4,83.1,-161.4,-11.4,0,0,1476,0,38,0,
0.8233,134.7,84.6,-379.8,-82.2,65.7,-165.6,-39.3,0,0,1482,0,39,0,
0.8267,137.7,73.2,-382.8,-97.5,64.2,-165.3,-44.7,0,0,1488,0,40,0,
0.8300,131.4,96.9,-365.4,-69.6,73.2,-164.4,-32.7,0,0,1494,0,41,0,
0.8333,114.9,134.1,-345.3,-28.2,81.0,-164.1,-19.5,0,0,1500,0,42,0,
0.8367,126.6,132.0,-354.6,-24.9,73.8,-171.6,-21.6,0,0,1506,0,43,0,
0.8400,131.1,82.5,-386.1,-90.0,56.7,-177.6,-48.9,0,0,1512,0,44,0,
0.8433,131.1,69.0,-388.5,-105.3,57.3,-178.2,-54.9,0,0,1518,0,45,0,
0.8467,120.9,92.1,-370.8,-73.5,67.5,-172.5,-44.1,0,0,1524,0,46,0,
0.8500,107.1,127.2,-350.1,-27.0,81.0,-168.9,-23.7,0,0,1530,0,47,0,
0.8533,114.0,123.0,-359.1,-29.1,75.9,-173.7,-27.0,0,0,1536,0,48,0,
0.8567,130.8,81.6,-382.2,-91.2,60.6,-170.7,-47.1,0,0,1542,0,49,0,
0.8600,125.7,74.1,-384.9,-105.3,60.3,-168.6,-46.8,0,0,1548,0,50,0,
0.8633,132.9,108.6,-359.1,-71.4,78.9,-156.0,-24.9,0,0,1554,0,51,0,
0.8667,126.3,147.9,-336.6,-20.7,94.2,-144.9,-2.4,0,0,1560,0,52,0,
0.8700,131.4,145.2,-343.2,-23.7,89.1,-154.5,-7.8,0,0,1566,0,53,0,
0.8733,136.5,91.2,-375.9,-81.9,69.9,-164.1,-35.1,0,0,1572,0,54,0,
0.8767,142.2,83.7,-376.5,-93.6,68.1,-157.8,-41.4,0,0,1578,0,55,0,
0.8800,134.7,114.0,-360.3,-64.2,77.7,-159.9,-22.8,0,0,1584,0,56,0,
0.8833,126.9,149.1,-338.7,-16.2,93.3,-147.6,-3.0,0,0,1590,0,57,0,
0.8867,128.7,147.6,-345.0,-15.0,88.8,-156.9,-3.6,0,0,1596,0,58,0,
0.8900,137.1,92.1,-378.0,-75.9,67.8,-166.2,-34.5,0,0,1602,0,59,0,
0.8933,142.5,86.4,-376.5,-91.5,67.8,-161.7,-38.7,0,0,1608,0,60,0,
0.8967,132.6,107.7,-363.9,-65.1,71.1,-160.8,-29.1,0,0,1614,0,61,0,
0.9000,125.1,148.5,-339.3,-19.2,84.0,-156.0,-7.8,0,0,1620,0,62,0,
0.9033,130.5,143.7,-347.1,-16.5,82.5,-162.0,-11.1,0,0,1626,0,63,0,
0.9067,138.9,94.8,-381.3,-74.7,64.8,-168.6,-38.4,0,0,1632,0,64,0,
0.9100,135.0,77.1,-388.2,-93.6,61.8,-165.9,-45.9,0,0,1638,0,65,0,
0.9133,128.4,107.4,-367.5,-61.8,79.2,-152.7,-24.3,0,0,1644,0,66,0,
0.9167,122.7,142.5,-347.1,-17.4,89.1,-150.3,-2.7,0,0,1650,0,67,0,
0.9200,129.3,135.9,-354.3,-17.7,87.3,-153.0,-9.0,0,0,1656,0,68,0,
0.9233,140.4,84.3,-381.6,-83.1,67.2,-157.2,-35.4,0,0,1662,0,69,0,
0.9267,141.0,73.8,-384.3,-98.1,66.6,-162.0,-38.1,0,0,1668,0,70,0,
0.9300,136.5,102.6,-367.8,-69.6,75.0,-154.8,-24.9,0,0,1674,0,71,0,
0.9333,130.2,148.2,-339.9,-18.9,91.2,-148.8,-3.6,0,0,1680,0,72,0,
0.9367,129.3,145.5,-346.2,-17.7,87.3,-153.0,-5.4,0,0,1686,0,73,0,
0.9400,135.0,91.2,-382.8,-85.8,67.5,-163.5,-36.0,0,0,1692,0,74,0,
0.9433,142.2,81.6,-384.9,-100.2,66.9,-162.9,-43.5,0,0,1698,0,75,0,
0.9467,135.3,107.4,-363.3,-64.2,78.6,-156.0,-32.4,0,0,1704,0,76,0,
0.9500,126.0,153.6,-336.0,-9.3,90.0,-154.8,-10.5,0,0,1710,0,77,0,
0.9533,133.2,149.4,-345.9,-11.1,85.8,-155.4,-8.7,0,0,1716,0,78,0,
0.9567,135.6,89.4,-385.2,-82.2,65.7,-166.5,-42.6,0,0,1722,0,79,0,
0.9600,134.4,74.7,-384.9,-103.5,64.2,-163.8,-51.0,0,0,1728,0,80,0,
0.9633,135.6,113.4,-361.5,-67.5,68.4,-164.1,-31.2,0,0,1734,0,81,0,
0.9667,116.4,147.6,-342.9,-16.2,84.9,-154.2,-13.2,0,0,1740,0,82,0,
0.9700,121.8,137.1,-352.8,-18.3,78.0,-168.0,-23.7,0,0,1746,0,83,0,
0.9733,131.4,78.3,-386.4,-85.8,60.0,-171.3,-50.7,0,0,1752,0,84,0,
0.9767,126.3,70.2,-389.1,-101.1,60.0,-170.1,-61.2,0,0,1758,0,85,0,
0.9800,117.0,101.1,-369.9,-68.4,69.9,-166.5,-48.6,0,0,1764,0,86,0,
0.9833,116.7,144.0,-342.6,-14.4,84.9,-159.9,-17.4,0,0,1770,0,87,0,
0.9867,117.0,138.6,-356.4,-13.8,79.5,-166.8,-24.6,0,0,1776,0,88,0,
0.9900,129.9,72.9,-393.3,-86.1,57.9,-173.4,-53.4,0,0,1782,0,89,0,
0.9933,133.2,68.1,-387.9,-100.5,57.0,-170.7,-53.4,0,0,1788,0,90,0,
0.9967,122.4,94.8,-365.4,-67.2,69.0,-168.3,-37.8,0,0,1794,0,91,0,
1.0000,127.8,149.7,-332.1,-11.7,77.4,-164.1,-12.9,0,0,1800,0,92,0,
1.0033,125.1,140.1,-348.3,-14.1,76.8,-170.1,-17.7,0,0,1806,0,93,0,
1.0067,132.0,79.5,-379.8,-81.0,57.3,-169.5,-46.2,0,0,1812,0,94,0,
1.0100,136.2,71.1,-382.2,-96.0,56.1,-175.5,-54.3,0,0,1818,0,95,0,
1.0133,125.1,97.5,-363.6,-67.2,66.6,-168.0,-41.1,0,0,1824,0,96,0,
1.0167,124.2,150.0,-332.4,-15.3,82.8,-160.8,-11.4,0,0,1830,0,97,0,
1.0200,124.2,142.5,-343.8,-13.2,77.7,-162.6,-11.7,0,0,1836,0,98,0,
1.0233,143.1,82.5,-380.1,-75.3,59.1,-176.1,-51.3,0,0,1842,0,99,0,
1.0267,131.1,69.9,-378.3,-94.5,56.1,-172.5,-54.3,0,0,1848,0,100,0,
1.0300,126.6,93.6,-365.7,-66.9,66.3,-167.4,-45.0,0,0,1854,0,101,0,
1.0333,118.5,135.6,-343.2,-13.5,80.7,-165.3,-17.1,0,0,1860,0,102,0,
1.0367,122.4,125.1,-353.4,-17.7,74.4,-171.0,-24.6,0,0,1866,0,103,0,
1.0400,124.5,66.3,-390.3,-91.2,54.6,-178.5,-51.9,0,0,1872,0,104,0,
1.0433,131.7,68.1,-385.8,-103.5,53.4,-176.7,-54.3,0,0,1878,0,105,0,
1.0467,129.3,101.1,-366.9,-71.1,66.0,-168.9,-36.0,0,0,1884,0,106,0,
1.0500,117.6,136.2,-348.6,-17.7,75.9,-170.1,-19.2,0,0,1890,0,107,0,
1.0533,125.4,135.6,-351.9,-15.9,72.0,-171.3,-26.4,0,0,1896,0,108,0,
1.0567,134.7,82.2,-385.2,-77.7,56.1,-178.5,-45.0,0,0,1902,0,109,0,
1.0600,132.0,69.0,-385.2,-101.7,52.5,-178.2,-53.4,0,0,1908,0,110,0,
1.0633,130.5,96.3,-366.9,-71.7,62.4,-177.0,-39.6,0,0,1914,0,111,0,
1.0667,120.6,144.6,-337.5,-16.8,78.6,-167.4,-20.4,0,0,1920,0,112,0,
1.0700,116.4,134.7,-349.8,-16.8,75.0,-167.4,-19.5,0,0,1926,0,113,0,
1.0733,133.8,75.3,-385.8,-84.6,54.6,-182.4,-53.1,0,0,1932,0,114,0,
1.0767,129.6,67.2,-385.8,-101.4,54.3,-176.7,-51.9,0,0,1938,0,115,0,
1.0800,127.8,96.9,-362.4,-69.6,60.9,-173.7,-45.0,0,0,1944,0,116,0,
1.0833,113.1,141.6,-342.3,-16.5,76.2,-170.4,-17.1,0,0,1950,0,117,0,
1.0867,119.7,143.7,-343.5,-11.4,69.9,-173.7,-14.4,0,0,1956,0,118,0,
1.0900,133.2,79.2,-383.1,-82.8,51.6,-183.3,-51.6,0,0,1962,0,119,0,
1.0933,128.1,72.9,-383.7,-100.5,50.4,-180.9,-60.0,0,0,1968,0,120,0,
1.0967,111.3,88.5,-369.6,-70.2,63.0,-181.5,-51.6,0,0,1974,0,121,0,
1.1000,107.7,122.4,-345.3,-15.3,78.3,-172.5,-33.0,0,0,1980,0,122,0,
1.1033,116.1,127.8,-351.6,-12.9,76.5,-173.4,-27.0,0,0,1986,0,123,0,
1.1067,127.2,73.2,-387.6,-81.3,56.1,-177.3,-46.8,0,0,1992,0,124,0,
1.1100,134.4,67.2,-387.0,-101.4,56.4,-172.5,-46.8,0,0,1998,0,125,0,
1.1133,128.4,95.7,-366.6,-71.1,67.5,-167.7,-37.2,0,0,2004,0,126,0,
1.1167,115.8,144.6,-344.1,-17.7,81.3,-165.3,-13.2,0,0,2010,0,127,0,
1.1200,114.6,125.1,-361.8,-20.4,70.5,-178.8,-23.1,0,0,2016,0,128,0,
1.1233,128.7,72.0,-395.1,-87.3,56.4,-177.0,-48.9,0,0,2022,0,129,0,
1.1267,124.2,59.4,-397.5,-100.8,52.8,-179.1,-53.1,0,0,2028,0,130,0,
1.1300,116.7,84.6,-376.5,-70.8,67.2,-171.0,-42.9,0,0,2034,0,131,0,
1.1333,108.3,132.9,-348.0,-15.6,85.2,-163.8,-13.8,0,0,2040,0,132,0,
1.1367,117.3,129.6,-361.5,-12.9,75.6,-171.0,-17.4,0,0,2046,0,133,0,
1.1400,125.1,67.5,-396.3,-85.8,51.3,-183.6,-52.2,0,0,2052,0,134,0,
1.1433,130.5,60.6,-391.8,-100.2,54.9,-180.0,-55.5,0,0,2058,0,135,0,
1.1467,121.2,94.2,-370.2,-67.8,62.4,-171.0,-33.3,0,0,2064,0,136,0,
1.1500,107.7,134.1,-346.8,-12.9,78.9,-167.4,-16.8,0,0,2070,0,137,0,
1.1533,120.0,133.5,-353.7,-14.7,73.5,-170.4,-14.1,0,0,2076,0,138,0,
1.1567,139.2,83.4,-384.3,-84.9,55.2,-177.3,-40.8,0,0,2082,0,139,0,
1.1600,144.3,70.8,-384.9,-105.0,57.3,-170.7,-43.8,0,0,2088,0,140,0,
1.1633,138.6,100.8,-363.3,-66.9,68.4,-166.2,-22.2,0,0,2094,0,141,0,
1.1667,124.8,136.5,-339.9,-19.5,81.9,-163.2,-3.3,0,0,2100,0,142,0,
1.1700,123.6,132.0,-353.7,-19.8,75.9,-169.5,-14.1,0,0,2106,0,143,0,
1.1733,128.7,73.5,-393.9,-87.6,54.6,-180.9,-44.7,0,0,2112,0,144,0,
1.1767,130.8,66.3,-390.0,-100.8,54.6,-181.2,-54.3,0,0,2118,0,145,0,
1.1800,129.6,91.8,-373.8,-69.0,63.0,-176.1,-39.6,0,0,2124,0,146,0,
1.1833,118.5,135.9,-346.2,-13.8,80.7,-170.4,-11.4,0,0,2130,0,147,0,
1.1867,111.3,125.7,-362.7,-16.2,82.8,-170.7,-19.2,0,0,2136,0,148,0,
1.1900,122.4,65.7,-399.0,-84.0,54.9,-187.5,-51.3,0,0,2142,0,149,0,
1.1933,137.1,73.8,-387.9,-96.6,56.7,-176.4,-49.2,0,0,2148,0,150,0,
1.1967,141.3,106.2,-364.2,-63.3,70.8,-163.5,-25.5,0,0,2154,0,151,0,
1.2000,143.4,143.7,-335.1,-12.9,83.4,-158.4,-1.2,0,0,2160,0,152,0,
1.2033,143.1,141.3,-345.0,-10.2,79.5,-171.3,-9.9,0,0,2166,0,153,0,
1.2067,148.8,81.6,-381.3,-78.6,58.8,-174.9,-39.6,0,0,2172,0,154,0,
1.2100,146.1,70.2,-384.6,-98.7,56.7,-176.4,-45.9,0,0,2178,0,155,0,
1.2133,130.8,89.1,-366.3,-71.4,65.4,-166.8,-31.2,0,0,2184,0,156,0,
1.2167,119.4,129.9,-345.9,-19.2,76.5,-171.3,-16.5,0,0,2190,0,157,0,
1.2200,127.2,134.1,-348.0,-13.2,72.9,-172.8,-13.2,0,0,2196,0,158,0,
1.2233,147.0,73.8,-387.0,-78.0,56.4,-183.3,-45.9,0,0,2202,0,159,0,
1.2267,142.5,60.0,-388.5,-99.3,55.5,-174.0,-52.8,0,0,2208,0,160,0,
1.2300,132.9,88.2,-372.6,-73.8,62.7,-179.7,-43.8,0,0,2214,0,161,0,
1.2333,117.3,133.8,-344.1,-17.4,78.6,-168.3,-13.8,0,0,2220,0,162,0,
1.2367,127.2,136.5,-350.7,-7.2,75.3,-174.6,-9.9,0,0,2226,0,163,0,
1.2400,132.6,71.7,-388.5,-84.3,57.3,-179.7,-54.6,0,0,2232,0,164,0,
1.2433,140.4,61.8,-393.3,-102.6,53.1,-179.4,-54.0,0,0,2238,0,165,0,
1.2467,133.5,85.8,-372.3,-74.4,63.6,-173.7,-43.8,0,0,2244,0,166,0,
1.2500,119.7,143.4,-342.9,-16.8,78.6,-170.4,-23.7,0,0,2250,0,167,0,
1.2533,118.8,136.5,-350.4,-17.1,78.9,-168.9,-19.8,0,0,2256,0,168,0,
1.2567,144.0,72.3,-388.2,-80.1,55.8,-183.9,-52.5,0,0,2262,0,169,0,
1.2600,132.6,53.7,-394.8,-106.5,51.6,-178.8,-63.9,0,0,2268,0,170,0,
1.2633,132.9,85.8,-373.2,-76.8,62.4,-175.2,-48.6,0,0,2274,0,171,0,
1.2667,116.1,134.1,-340.2,-15.0,78.3,-175.2,-24.6,0,0,2280,0,172,0,
1.2700,108.6,120.0,-355.8,-19.2,77.4,-177.0,-38.1,0,0,2286,0,173,0,
1.2733,131.7,59.1,-394.5,-90.9,54.3,-186.0,-61.2,0,0,2292,0,174,0,
1.2767,140.1,56.7,-393.9,-108.9,47.1,-186.3,-57.9,0,0,2298,0,175,0,
1.2800,127.2,90.9,-370.2,-73.8,63.0,-173.4,-38.1,0,0,2304,0,176,0,
1.2833,123.9,135.3,-342.3,-21.0,78.9,-167.4,-14.4,0,0,2310,0,177,0,
1.2867,133.8,134.4,-351.9,-18.9,73.5,-174.0,-10.5,0,0,2316,0,178,0,
1.2900,139.8,76.2,-386.4,-88.2,54.6,-176.7,-42.6,0,0,2322,0,179,0,
1.2933,135.9,64.2,-392.4,-114.6,51.3,-174.3,-44.1,0,0,2328,0,180,0,
1.2967,129.0,93.9,-372.6,-75.0,72.0,-157.2,-21.6,0,0,2334,0,181,0,
1.3000,128.4,141.0,-345.0,-16.5,84.0,-156.0,0.3,0,0,2340,0,182,0,
1.3033,124.5,149.1,-345.0,-9.0,84.6,-163.5,2.4,0,0,2346,0,183,0,
1.3067,140.1,82.5,-386.4,-85.2,63.3,-167.4,-24.0,0,0,2352,0,184,0,
1.3100,137.4,76.8,-384.9,-104.7,60.3,-166.2,-27.6,0,0,2358,0,185,0,
1.3133,127.5,103.5,-363.6,-73.5,69.6,-161.1,-13.5,0,0,2364,0,186,0,
1.3167,116.1,139.8,-343.5,-21.3,84.9,-153.3,8.7,0,0,2370,0,187,0,
1.3200,121.8,133.5,-357.6,-21.6,77.4,-164.4,1.8,0,0,2376,0,188,0,
1.3233,132.3,88.8,-387.3,-93.0,61.8,-167.4,-24.6,0,0,2382,0,189,0,
1.3267,133.2,70.2,-389.1,-110.1,63.0,-166.2,-34.2,0,0,2388,0,190,0,
1.3300,122.7,89.7,-372.0,-80.4,73.5,-159.9,-24.6,0,0,2394,0,191,0,
1.3333,111.3,133.8,-348.6,-24.9,85.2,-155.1,-3.6,0,0,2400,0,192,0,
1.3367,119.1,130.5,-360.0,-23.4,79.2,-161.1,-7.5,0,0,2406,0,193,0,
1.3400,134.7,71.7,-393.6,-98.7,54.9,-177.0,-42.9,0,0,2412,0,194,0,
1.3433,126.6,60.6,-394.5,-116.7,60.9,-162.9,-43.5,0,0,2418,0,195,0,
1.3467,126.0,92.7,-374.4,-83.1,69.6,-164.1,-21.9,0,0,2424,0,196,0,
1.3500,108.3,133.5,-353.7,-31.5,83.4,-159.6,-14.7,0,0,2430,0,197,0,
1.3533,118.2,129.6,-361.2,-23.1,83.4,-165.6,-13.8,0,0,2436,0,198,0,
1.3567,126.0,76.2,-392.7,-91.5,62.1,-172.5,-39.9,0,0,2442,0,199,0,
1.3600,131.4,60.9,-398.1,-114.0,60.9,-171.0,-50.1,0,0,2448,0,200,0,
1.3633,126.6,87.9,-376.5,-82.2,71.1,-164.1,-30.3,0,0,2454,0,201,0,
1.3667,111.0,122.7,-356.7,-30.3,80.4,-165.9,-12.3,0,0,2460,0,202,0,
1.3700,116.4,124.2,-361.5,-23.1,81.0,-168.9,-9.9,0,0,2466,0,203,0,
1.3733,133.5,60.9,-400.8,-93.6,56.7,-178.2,-44.7,0,0,2472,0,204,0,
1.3767,125.7,44.7,-405.6,-115.5,52.5,-182.4,-56.1,0,0,2478,0,205,0,
1.3800,118.2,67.5,-391.8,-84.9,60.3,-180.3,-45.6,0,0,2484,0,206,0,
1.3833,104.4,117.9,-358.5,-27.0,78.6,-171.9,-13.5,0,0,2490,0,207,0,
1.3867,110.4,117.0,-367.8,-18.6,75.0,-176.4,-21.3,0,0,2496,0,208,0,
1.3900,115.5,55.2,-405.3,-92.1,54.6,-184.5,-50.1,0,0,2502,0,209,0,
1.3933,115.5,35.1,-413.1,-117.3,48.9,-189.6,-69.3,0,0,2508,0,210,0,
1.3967,102.9,60.6,-394.8,-81.9,59.4,-188.1,-60.0,0,0,2514,0,211,0,
1.4000,93.3,108.3,-369.9,-28.2,73.5,-180.0,-31.5,0,0,2520,0,212,0,
1.4033,102.3,112.5,-375.6,-22.8,71.4,-184.5,-31.5,0,0,2526,0,213,0,
1.4067,107.4,40.8,-415.5,-102.6,54.6,-183.3,-60.0,0,0,2532,0,214,0,
1.4100,124.8,33.0,-412.5,-119.1,48.9,-189.9,-69.6,0,0,2538,0,215,0,
1.4133,119.1,62.1,-388.8,-80.4,61.5,-174.9,-44.7,0,0,2544,0,216,0,
1.4167,116.7,120.9,-355.2,-21.9,80.1,-168.0,-16.8,0,0,2550,0,217,0,
1.4200,108.0,111.9,-368.4,-18.3,69.6,-179.7,-27.0,0,0,2556,0,218,0,
1.4233,122.4,48.9,-406.8,-91.5,58.8,-181.8,-54.3,0,0,2562,0,219,0,
1.4267,122.4,39.6,-407.4,-113.4,54.3,-177.9,-53.7,0,0,2568,0,220,0,
1.4300,115.5,70.5,-381.9,-79.8,66.3,-172.2,-43.5,0,0,2574,0,221,0,
1.4333,108.9,113.4,-360.0,-24.3,83.1,-161.7,-15.3,0,0,2580,0,222,0,
1.4367,114.3,113.4,-362.7,-16.5,78.3,-168.0,-17.7,0,0,2586,0,223,0,
1.4400,126.3,55.2,-399.6,-89.4,62.1,-171.9,-47.4,0,0,2592,0,224,0,
1.4433,123.3,47.1,-399.3,-112.8,57.3,-177.6,-55.5,0,0,2598,0,225,0,
1.4467,121.8,78.3,-376.2,-75.3,71.4,-164.4,-37.2,0,0,2604,0,226,0,
1.4500,111.9,121.2,-350.1,-21.9,84.6,-159.3,-8.7,0,0,2610,0,227,0,
1.4533,113.7,123.6,-355.8,-16.8,81.6,-164.1,-10.8,0,0,2616,0,228,0,
1.4567,124.8,62.1,-392.1,-91.8,62.4,-171.6,-43.2,0,0,2622,0,229,0,
1.4600,123.3,54.3,-391.8,-109.5,61.8,-167.7,-48.0,0,0,2628,0,230,0,
1.4633,120.9,83.1,-377.7,-79.2,75.3,-158.1,-29.1,0,0,2634,0,231,0,
1.4667,111.3,128.7,-348.3,-18.0,87.6,-156.9,-5.4,0,0,2640,0,232,0,
1.4700,118.2,115.8,-360.3,-15.6,86.7,-156.0,-5.1,0,0,2646,0,233,0,
1.4733,132.6,60.9,-392.7,-83.7,62.7,-168.6,-40.2,0,0,2652,0,234,0,
1.4767,129.3,47.7,-397.5,-109.5,67.8,-164.1,-43.5,0,0,2658,0,235,0,
1.4800,118.8,73.8,-384.9,-82.2,73.2,-165.6,-31.2,0,0,2664,0,236,0,
1.4833,105.0,120.6,-358.5,-24.9,90.0,-153.9,-6.6,0,0,2670,0,237,0,
1.4867,118.8,121.8,-363.6,-22.2,87.0,-165.9,-8.4,0,0,2676,0,238,0,
1.4900,131.4,62.4,-401.7,-92.4,61.8,-173.7,-31.2,0,0,2682,0,239,0,
1.4933,139.5,49.5,-398.4,-111.9,60.3,-166.8,-42.9,0,0,2688,0,240,0,
1.4967,131.7,77.4,-377.7,-78.0,72.0,-157.8,-26.1,0,0,2694,0,241,0,
1.5000,118.5,122.4,-355.2,-26.1,83.1,-157.2,-1.8,0,0,2700,0,242,0,
1.5033,125.4,125.1,-361.2,-16.5,87.0,-158.4,0.6,0,0,2706,0,243,0,
1.5067,137.7,69.3,-396.9,-90.9,63.3,-166.2,-36.3,0,0,2712,0,244,0,
1.5100,134.4,54.0,-399.9,-113.1,59.7,-165.0,-42.6,0,0,2718,0,245,0,
1.5133,135.0,86.4,-375.9,-74.7,69.0,-159.3,-32.1,0,0,2724,0,246,0,
1.5167,120.9,130.5,-352.5,-18.0,84.3,-157.2,-6.0,0,0,2730,0,247,0,
1.5200,117.3,126.3,-361.5,-20.4,81.9,-163.8,-6.0,0,0,2736,0,248,0,
1.5233,139.5,74.7,-389.4,-86.7,58.2,-174.0,-36.6,0,0,2742,0,249,0,
1.5267,144.0,59.1,-395.7,-111.9,57.3,-166.5,-44.7,0,0,2748,0,250,0,
1.5300,143.1,95.4,-369.9,-78.3,69.6,-159.0,-23.1,0,0,2754,0,251,0,
1.5333,134.4,145.8,-345.3,-20.1,85.2,-153.3,2.7,0,0,2760,0,252,0,
1.5367,120.9,137.4,-358.2,-15.3,83.7,-163.8,-2.7,0,0,2766,0,253,0,
1.5400,136.8,76.5,-393.9,-85.8,63.3,-174.9,-33.3,0,0,2772,0,254,0,
1.5433,142.8,76.2,-388.8,-99.0,62.4,-164.4,-33.3,0,0,2778,0,255,0,
1.5467,148.8,94.5,-373.5,-73.5,74.7,-157.2,-24.3,0,0,2784,0,0,0,
1.5500,133.2,135.6,-348.3,-25.2,89.7,-154.8,-4.5,0,0,2790,0,1,0,
1.5533,135.0,131.4,-357.0,-17.4,84.0,-161.7,-2.7,0,0,2796,0,2,0,
1.5567,135.6,81.9,-386.4,-81.9,65.1,-172.2,-26.4,0,0,2802,0,3,0,
1.5600,144.3,61.8,-393.3,-101.1,60.6,-168.0,-45.0,0,0,2808,0,4,0,
1.5633,133.2,93.3,-370.5,-75.0,72.0,-165.3,-33.6,0,0,2814,0,5,0,
1.5667,131.7,130.2,-355.2,-25.5,84.9,-156.9,-5.1,0,0,2820,0,6,0,
1.5700,124.5,121.2,-362.4,-21.0,82.5,-166.2,-13.2,0,0,2826,0,7,0,
1.5733,133.2,66.9,-393.3,-81.9,72.3,-157.8,-39.6,0,0,2832,0,8,0,
1.5767,143.4,61.2,-390.6,-101.1,63.3,-172.2,-48.0,0,0,2838,0,9,0,
1.5800,139.8,81.9,-376.8,-71.1,70.8,-174.0,-42.3,0,0,2844,0,10,0,
1.5833,122.4,123.6,-353.4,-25.8,82.2,-168.9,-18.3,0,0,2850,0,11,0,
1.5867,129.9,117.3,-365.7,-21.6,78.6,-171.9,-25.2,0,0,2856,0,12,0,
1.5900,136.2,63.6,-396.3,-90.3,62.7,-178.8,-53.1,0,0,2862,0,13,0,
1.5933,139.5,58.8,-394.5,-100.8,63.6,-175.2,-54.0,0,0,2868,0,14,0,
1.5967,128.7,79.2,-380.4,-76.2,77.1,-168.6,-39.0,0,0,2874,0,15,0,
1.6000,129.3,119.4,-359.4,-29.7,86.1,-165.6,-16.5,0,0,2880,0,16,0,
1.6033,130.5,123.0,-365.7,-26.4,87.3,-163.5,-13.2,0,0,2886,0,17,0,
1.6067,145.5,70.8,-393.3,-85.8,69.9,-165.9,-40.8,0,0,2892,0,18,0,
1.6100,136.8,61.2,-394.5,-103.8,64.2,-166.5,-45.3,0,0,2898,0,19,0,
1.6133,134.7,90.6,-376.5,-72.6,72.3,-162.0,-32.7,0,0,2904,0,20,0,
1.6167,130.8,124.8,-353.7,-22.8,90.6,-152.7,-9.9,0,0,2910,0,21,0,
1.6200,129.3,118.2,-364.2,-21.3,81.3,-166.5,-15.6,0,0,2916,0,22,0,
1.6233,134.1,66.6,-393.6,-81.6,67.2,-170.4,-42.0,0,0,2922,0,23,0,
1.6267,144.6,58.8,-396.0,-93.0,65.7,-168.0,-44.7,0,0,2928,0,24,0,
1.6300,135.6,78.6,-382.2,-72.9,71.1,-167.1,-36.9,0,0,2934,0,25,0,
1.6333,121.8,128.7,-351.9,-23.7,88.5,-153.6,-5.7,0,0,2940,0,26,0,
1.6367,142.2,138.3,-350.7,-15.0,82.8,-163.8,-1.2,0,0,2946,0,27,0,
1.6400,140.4,76.5,-395.1,-82.8,67.2,-168.0,-35.4,0,0,2952,0,28,0,
1.6433,147.6,62.7,-394.2,-98.4,62.7,-164.1,-33.9,0,0,2958,0,29,0,
1.6467,138.0,86.1,-376.8,-69.9,77.1,-156.9,-28.5,0,0,2964,0,30,0,
1.6500,133.2,132.9,-349.8,-21.9,87.0,-159.6,-0.3,0,0,2970,0,31,0,
1.6533,139.2,129.3,-355.8,-17.1,91.5,-153.3,1.5,0,0,2976,0,32,0,
1.6567,133.8,81.6,-387.6,-76.5,74.4,-156.6,-28.5,0,0,2982,0,33,0,
1.6600,154.5,72.0,-392.4,-99.6,66.3,-168.3,-44.4,0,0,2988,0,34,0,
1.6633,151.8,91.2,-379.8,-71.4,77.7,-158.1,-27.9,0,0,2994,0,35,0,
1.6667,144.6,135.3,-349.5,-23.7,88.2,-156.3,-0.9,0,0,3000,0,36,0,
1.6700,125.4,130.5,-360.0,-24.9,82.2,-163.8,-2.7,0,0,3006,0,37,0,
1.6733,136.5,76.5,-393.6,-85.2,75.0,-152.7,-25.2,0,0,3012,0,38,0,
1.6767,144.9,54.9,-396.0,-104.1,66.3,-172.5,-40.5,0,0,3018,0,39,0,
1.6800,136.8,82.8,-381.3,-78.3,75.0,-165.9,-24.0,0,0,3024,0,40,0,
1.6833,123.0,131.1,-350.1,-25.5,86.7,-160.2,-5.4,0,0,3030,0,41,0,
1.6867,124.8,128.4,-361.5,-19.8,86.1,-154.5,1.5,0,0,3036,0,42,0,
1.6900,129.3,65.1,-399.0,-89.7,68.4,-175.8,-45.6,0,0,3042,0,43,0,
1.6933,126.9,48.0,-405.0,-111.3,61.8,-174.3,-56.1,0,0,3048,0,44,0,
1.6967,97.2,62.4,-396.3,-89.4,73.5,-170.7,-39.6,0,0,3054,0,45,0,
1.7000,93.6,104.1,-368.4,-39.3,81.0,-176.1,-19.2,0,0,3060,0,46,0,
1.7033,106.5,119.4,-367.8,-32.1,81.3,-162.6,-15.0,0,0,3066,0,47,0,
1.7067,119.1,79.5,-396.6,-92.1,61.5,-180.3,-33.6,0,0,3072,0,48,0,
1.7100,99.9,52.2,-402.3,-112.8,61.5,-168.6,-39.3,0,0,3078,0,49,0,
1.7133,115.8,82.2,-375.6,-83.7,72.3,-168.6,-28.8,0,0,3084,0,50,0,
1.7167,118.2,121.2,-351.6,-29.7,84.6,-155.1,-8.1,0,0,3090,0,51,0,
1.7200,121.2,116.4,-357.3,-25.5,85.5,-165.9,-10.2,0,0,3096,0,52,0,
1.7233,120.3,69.9,-390.3,-87.9,68.4,-170.1,-33.9,0,0,3102,0,53,0,
1.7267,152.1,54.6,-398.7,-111.6,64.2,-166.2,-40.5,0,0,3108,0,54,0,
1.7300,127.8,61.5,-391.2,-87.9,72.6,-174.3,-50.7,0,0,3114,0,55,0,
1.7333,124.8,101.4,-370.8,-40.8,89.1,-162.9,-24.6,0,0,3120,0,56,0,
1.7367,121.5,114.6,-363.0,-30.3,78.0,-173.1,-15.0,0,0,3126,0,57,0,
1.7400,149.1,49.2,-406.5,-98.4,61.8,-185.7,-69.3,0,0,3132,0,58,0,
1.7433,139.5,49.8,-404.4,-113.1,60.9,-171.9,-60.9,0,0,3138,0,59,0,
1.7467,154.2,57.9,-388.2,-84.3,63.3,-191.4,-45.0,0,0,3144,0,60,0,
1.7500,129.9,100.5,-370.5,-39.9,80.1,-183.3,-37.2,0,0,3150,0,61,0,
1.7533,138.9,97.8,-376.2,-30.9,80.7,-181.5,-42.3,0,0,3156,0,62,0,
1.7567,146.4,48.0,-399.3,-93.0,63.3,-162.3,-45.0,0,0,3162,0,63,0,
1.7600,163.8,38.4,-401.1,-111.0,56.4,-194.7,-67.8,0,0,3168,0,64,0,
1.7633,159.6,64.5,-383.7,-86.4,65.1,-192.0,-68.1,0,0,3174,0,65,0,
1.7667,132.0,88.8,-371.7,-40.5,84.6,-177.0,-36.6,0,0,3180,0,66,0,
1.7700,137.1,90.6,-381.9,-36.0,75.9,-179.4,-28.2,0,0,3186,0,67,0,
1.7733,141.0,45.0,-403.2,-96.9,58.2,-190.2,-73.2,0,0,3192,0,68,0,
1.7767,159.3,26.4,-399.6,-109.8,51.9,-188.4,-76.5,0,0,3198,0,69,0,
1.7800,156.0,63.9,-369.3,-75.6,58.8,-206.7,-83.7,0,0,3204,0,70,0,
1.7833,127.2,114.3,-365.7,-41.7,84.0,-154.8,-6.0,0,0,3210,0,71,0,
1.7867,174.9,126.6,-363.9,-23.7,73.2,-204.9,-56.1,0,0,3216,0,72,0,
1.7900,173.7,8.7,-416.7,-96.0,58.5,-199.5,-83.7,0,0,3222,0,73,0,
1.7933,174.3,26.4,-412.5,-111.9,55.5,-198.6,-80.7,0,0,3228,0,74,0,
1.7967,173.4,46.2,-395.4,-90.9,63.3,-192.0,-57.0,0,0,3234,0,75,0,
1.8000,151.5,97.5,-367.8,-41.7,77.4,-186.3,-39.6,0,0,3240,0,76,0,
1.8033,158.4,82.2,-377.7,-37.5,76.8,-195.9,-49.8,0,0,3246,0,77,0,
1.8067,166.8,42.3,-396.6,-91.8,59.4,-191.4,-76.8,0,0,3252,0,78,0,
1.8100,180.6,19.5,-414.0,-115.8,49.8,-204.3,-90.9,0,0,3258,0,79,0,
1.8133,155.1,46.8,-398.7,-90.6,61.5,-192.3,-76.5,0,0,3264,0,80,0,
1.8167,148.5,73.5,-382.5,-43.2,75.6,-191.4,-49.2,0,0,3270,0,81,0,
1.8200,135.6,90.0,-375.9,-33.6,73.5,-195.3,-69.6,0,0,3276,0,82,0,
1.8233,179.4,37.5,-408.0,-96.3,55.5,-204.0,-80.1,0,0,3282,0,83,0,
1.8267,186.6,25.2,-402.3,-108.9,56.7,-191.4,-72.0,0,0,3288,0,84,0,
1.8300,178.5,55.5,-386.1,-87.0,64.8,-191.4,-69.0,0,0,3294,0,85,0,
1.8333,165.9,92.7,-358.2,-34.2,78.9,-185.7,-42.0,0,0,3300,0,86,0,
1.8367,173.4,99.6,-363.9,-27.9,79.2,-189.6,-43.5,0,0,3306,0,87,0,
1.8400,177.6,36.9,-410.1,-94.8,62.1,-198.3,-72.6,0,0,3312,0,88,0,
1.8433,171.9,28.8,-406.8,-114.3,63.0,-193.8,-75.6,0,0,3318,0,89,0,
1.8467,177.6,62.7,-383.7,-83.4,68.7,-192.3,-67.8,0,0,3324,0,90,0,
1.8500,170.4,108.9,-361.2,-31.2,87.0,-179.4,-30.0,0,0,3330,0,91,0,
1.8533,164.4,106.2,-363.9,-22.8,84.3,-183.6,-34.2,0,0,3336,0,92,0,
1.8567,177.0,47.1,-398.4,-94.5,60.0,-194.1,-66.6,0,0,3342,0,93,0,
1.8600,163.2,21.6,-412.8,-123.3,58.5,-194.4,-85.5,0,0,3348,0,94,0,
1.8633,183.3,61.5,-385.2,-89.7,62.1,-191.7,-61.8,0,0,3354,0,95,0,
1.8667,174.9,111.3,-353.7,-34.5,80.4,-184.5,-30.6,0,0,3360,0,96,0,
1.8700,180.3,102.6,-362.4,-28.2,77.1,-183.3,-31.2,0,0,3366,0,97,0,
1.8733,192.0,47.1,-397.5,-96.9,57.9,-195.0,-67.5,0,0,3372,0,98,0,
1.8767,188.1,34.5,-398.4,-116.1,54.9,-196.8,-79.8,0,0,3378,0,99,0,
1.8800,181.2,57.9,-384.9,-82.5,62.7,-195.0,-68.7,0,0,3384,0,100,0,
1.8833,161.7,107.7,-358.8,-30.0,79.8,-184.2,-39.9,0,0,3390,0,101,0,
1.8867,171.0,109.8,-359.1,-21.6,76.2,-186.9,-28.2,0,0,3396,0,102,0,
1.8900,181.5,51.6,-400.8,-95.1,55.2,-197.7,-65.4,0,0,3402,0,103,0,
1.8933,180.3,38.7,-404.4,-114.0,57.0,-192.6,-68.7,0,0,3408,0,104,0,
1.8967,175.8,70.2,-378.3,-76.2,66.3,-188.4,-53.1,0,0,3414,0,105,0,
1.9000,154.5,108.6,-350.4,-25.2,83.1,-181.2,-33.3,0,0,3420,0,106,0,
1.9033,172.8,112.5,-361.2,-20.4,79.5,-182.1,-25.8,0,0,3426,0,107,0,
1.9067,178.8,57.6,-392.7,-89.1,63.3,-187.8,-55.5,0,0,3432,0,108,0,
1.9100,174.9,38.4,-398.7,-110.1,57.6,-189.6,-72.9,0,0,3438,0,109,0,
1.9133,176.1,66.6,-388.2,-80.4,70.5,-182.1,-49.5,0,0,3444,0,110,0,
1.9167,171.9,117.0,-354.0,-28.2,82.8,-177.9,-29.4,0,0,3450,0,111,0,
1.9200,156.3,112.8,-359.1,-18.6,84.6,-182.4,-31.5,0,0,3456,0,112,0,
1.9233,164.4,27.9,-409.5,-95.7,64.5,-191.1,-67.2,0,0,3462,0,113,0,
1.9267,167.4,44.1,-393.0,-109.2,62.4,-192.0,-64.5,0,0,3468,0,114,0,
1.9300,164.4,64.5,-371.1,-81.3,69.3,-186.9,-53.7,0,0,3474,0,115,0,
1.9333,156.3,125.4,-331.5,-21.3,83.1,-178.8,-22.2,0,0,3480,0,116,0,
1.9367,174.6,97.8,-373.5,-27.6,79.5,-184.8,-27.0,0,0,3486,0,117,0,
1.9400,175.5,52.5,-400.5,-101.1,64.5,-181.5,-47.4,0,0,3492,0,118,0,
1.9433,174.6,36.0,-402.6,-117.9,58.8,-188.4,-69.6,0,0,3498,0,119,0,
1.9467,162.0,50.4,-388.2,-87.0,66.6,-192.3,-56.1,0,0,3504,0,120,0,
1.9500,160.2,121.2,-359.1,-36.3,84.3,-178.8,-22.5,0,0,3510,0,121,0,
1.9533,159.6,98.4,-367.5,-27.0,80.4,-188.7,-21.6,0,0,3516,0,122,0,
1.9567,166.2,54.0,-398.1,-93.9,58.2,-197.7,-65.1,0,0,3522,0,123,0,
1.9600,178.5,49.2,-402.3,-115.5,57.9,-190.8,-59.4,0,0,3528,0,124,0,
1.9633,144.6,49.2,-376.8,-88.2,67.5,-179.1,-61.2,0,0,3534,0,125,0,
1.9667,155.1,111.0,-322.8,-26.7,78.0,-192.0,-32.4,0,0,3540,0,126,0,
1.9700,150.3,147.3,-305.4,-14.1,77.1,-183.0,-21.0,0,0,3546,0,127,0,
1.9733,192.3,33.3,-429.3,-100.2,61.8,-187.2,-54.9,0,0,3552,0,128,0,
1.9767,193.8,42.0,-413.7,-122.1,58.5,-188.1,-58.2,0,0,3558,0,129,0,
1.9800,175.5,89.4,-391.5,-90.9,67.8,-184.5,-45.9,0,0,3564,0,130,0,
1.9833,157.2,108.9,-342.3,-30.9,87.0,-168.3,-23.1,0,0,3570,0,131,0,
1.9867,174.9,124.2,-369.3,-32.4,80.4,-181.8,-15.6,0,0,3576,0,132,0,
1.9900,165.0,68.1,-389.4,-95.4,61.2,-183.3,-35.4,0,0,3582,0,133,0,
1.9933,187.8,64.5,-380.7,-111.0,56.4,-183.0,-56.4,0,0,3588,0,134,0,
1.9967,173.1,72.6,-383.1,-84.0,74.7,-175.5,-39.9,0,0,3594,0,135,0,
2.0000,155.4,111.3,-345.0,-27.9,86.7,-175.8,-35.7,0,0,3600,0,136,0,
2.0033,165.9,129.6,-349.8,-22.5,85.8,-171.0,-5.4,0,0,3606,0,137,0,
2.0067,174.0,69.0,-375.0,-95.7,56.7,-190.5,-49.2,0,0,3612,0,138,0,
2.0100,172.5,46.2,-384.0,-118.5,56.1,-193.8,-70.2,0,0,3618,0,139,0,
2.0133,156.6,80.1,-385.8,-90.0,73.8,-173.7,-46.5,0,0,3624,0,140,0,
2.0167,142.2,207.3,-320.1,-21.3,81.9,-171.9,-12.9,0,0,3630,0,141,0,
2.0200,158.1,92.4,-342.6,-22.5,84.6,-174.6,-20.7,0,0,3636,0,142,0,
2.0233,194.1,51.0,-402.9,-100.8,60.9,-187.2,-50.7,0,0,3642,0,143,0,
2.0267,181.2,49.2,-394.5,-113.4,61.8,-179.4,-52.2,0,0,3648,0,144,0,
2.0300,185.1,72.9,-381.6,-86.1,75.6,-171.9,-37.8,0,0,3654,0,145,0,
2.0333,163.8,179.7,-330.9,-22.8,89.1,-165.3,-12.3,0,0,3660,0,146,0,
2.0367,147.3,158.7,-348.6,-17.1,89.4,-166.2,-12.6,0,0,3666,0,147,0,
2.0400,174.9,85.2,-381.0,-92.4,71.4,-170.1,-43.8,0,0,3672,0,148,0,
2.0433,163.8,32.4,-382.8,-115.2,60.9,-172.5,-57.6,0,0,3678,0,149,0,
2.0467,152.7,129.3,-343.2,-75.3,74.7,-174.0,-54.6,0,0,3684,0,150,0,
2.0500,154.8,149.4,-284.4,-6.6,88.2,-154.5,-8.4,0,0,3690,0,151,0,
2.0533,182.7,120.9,-392.7,-33.3,91.8,-155.7,-14.1,0,0,3696,0,152,0,
2.0567,167.4,97.8,-335.7,-76.8,67.5,-155.4,-24.3,0,0,3702,0,153,0,
2.0600,143.1,164.7,-362.1,-100.5,61.5,-176.1,-65.7,0,0,3708,0,154,0,
2.0633,158.1,50.4,-347.7,-79.5,70.2,-168.0,-57.9,0,0,3714,0,155,0,
2.0667,193.5,102.0,-390.6,-37.2,88.8,-166.8,-15.9,0,0,3720,0,156,0,
2.0700,166.5,128.4,-354.0,-23.4,84.3,-169.2,-27.3,0,0,3726,0,157,0,
2.0733,185.1,84.6,-396.3,-90.6,59.7,-176.4,-54.0,0,0,3732,0,158,0,
2.0767,190.8,85.5,-392.1,-115.8,62.1,-161.4,-35.4,0,0,3738,0,159,0,
2.0800,153.3,83.1,-349.8,-76.5,74.4,-162.3,-34.2,0,0,3744,0,160,0,
2.0833,157.2,106.2,-329.4,-30.3,90.9,-153.9,-29.1,0,0,3750,0,161,0,
2.0867,184.2,113.7,-386.7,-26.1,89.7,-155.1,-15.3,0,0,3756,0,162,0,
2.0900,193.8,112.5,-390.6,-87.9,66.9,-170.7,-42.3,0,0,3762,0,163,0,
2.0933,170.7,138.3,-375.6,-107.4,65.4,-163.2,-48.0,0,0,3768,0,164,0,
2.0967,175.2,20.7,-358.2,-69.6,77.4,-152.4,-43.2,0,0,3774,0,165,0,
2.1000,159.9,140.4,-308.4,-21.3,93.6,-144.6,-20.7,0,0,3780,0,166,0,
2.1033,152.7,151.8,-345.9,-14.4,80.4,-177.9,-25.2,0,0,3786,0,167,0,
2.1067,187.8,24.6,-411.9,-85.5,67.2,-168.0,-51.9,0,0,3792,0,168,0,
2.1100,168.9,41.4,-392.1,-105.0,63.3,-162.6,-60.9,0,0,3798,0,169,0,
2.1133,171.6,48.6,-375.0,-77.4,71.4,-171.6,-53.1,0,0,3804,0,170,0,
2.1167,148.8,153.0,-334.8,-22.8,87.0,-159.6,-21.9,0,0,3810,0,171,0,
2.1200,148.2,116.4,-357.6,-14.7,80.1,-170.4,-33.9,0,0,3816,0,172,0,
2.1233,174.9,24.3,-393.0,-84.9,63.0,-181.5,-69.3,0,0,3822,0,173,0,
2.1267,181.5,52.5,-406.2,-111.3,65.7,-167.4,-58.2,0,0,3828,0,174,0,
2.1300,154.2,98.4,-371.4,-78.9,71.4,-165.6,-52.8,0,0,3834,0,175,0,
2.1333,149.7,101.4,-362.4,-25.8,92.7,-156.0,-36.0,0,0,3840,0,176,0,
2.1367,148.5,161.1,-344.1,-12.6,85.5,-159.3,-14.7,0,0,3846,0,177,0,
2.1400,171.9,25.8,-402.9,-92.4,61.8,-174.9,-70.5,0,0,3852,0,178,0,
2.1433,162.6,48.0,-383.4,-105.6,59.4,-171.9,-80.4,0,0,3858,0,179,0,
2.1467,162.6,56.4,-381.6,-82.5,70.8,-161.7,-59.7,0,0,3864,0,180,0,
2.1500,146.7,75.6,-380.7,-34.5,85.5,-171.9,-33.9,0,0,3870,0,181,0,
2.1533,165.6,148.2,-323.4,-12.3,84.0,-169.8,-27.9,0,0,3876,0,182,0,
2.1567,170.4,71.4,-363.3,-78.3,63.3,-173.7,-57.0,0,0,3882,0,183,0,
2.1600,183.0,101.1,-408.9,-108.3,60.6,-176.1,-63.9,0,0,3888,0,184,0,
2.1633,165.3,37.8,-378.3,-75.9,74.1,-164.1,-50.4,0,0,3894,0,185,0,
2.1667,161.4,92.4,-334.2,-20.7,86.1,-171.3,-35.4,0,0,3900,0,186,0,
2.1700,162.9,104.7,-377.1,-19.8,81.0,-170.1,-26.4,0,0,3906,0,187,0,
2.1733,162.3,75.9,-358.5,-79.8,60.9,-177.6,-56.7,0,0,3912,0,188,0,
2.1767,181.2,26.4,-426.3,-111.3,62.4,-175.5,-69.0,0,0,3918,0,189,0,
2.1800,162.6,94.2,-387.3,-78.0,75.0,-172.5,-51.9,0,0,3924,0,190,0,
2.1833,135.0,154.8,-319.8,-6.0,84.6,-168.3,-29.1,0,0,3930,0,191,0,
2.1867,166.2,97.2,-362.1,-14.7,81.0,-171.3,-31.8,0,0,3936,0,192,0,
2.1900,174.6,51.3,-405.6,-84.3,61.2,-178.8,-60.6,0,0,3942,0,193,0,
2.1933,153.6,43.2,-394.5,-100.5,62.4,-178.8,-71.7,0,0,3948,0,194,0,
2.1967,173.1,53.4,-388.5,-72.9,78.6,-168.9,-53.1,0,0,3954,0,195,0,
2.2000,156.0,116.4,-345.3,-19.2,87.3,-160.8,-20.4,0,0,3960,0,196,0,
2.2033,158.4,119.1,-358.8,-15.6,86.1,-166.2,-25.2,0,0,3966,0,197,0,
2.2067,158.4,81.0,-384.3,-77.7,62.1,-179.1,-59.7,0,0,3972,0,198,0,
2.2100,173.7,31.5,-397.8,-105.9,65.4,-174.6,-65.4,0,0,3978,0,199,0,
2.2133,165.0,69.3,-376.8,-76.5,75.6,-166.5,-55.2,0,0,3984,0,200,0,
2.2167,153.9,116.1,-348.3,-18.9,84.3,-166.5,-28.8,0,0,3990,0,201,0,
2.2200,153.3,113.4,-356.4,-10.5,81.0,-168.3,-30.0,0,0,3996,0,202,0,
2.2233,167.7,56.7,-394.5,-80.7,61.5,-174.0,-58.2,0,0,4002,0,203,0,
2.2267,160.5,48.6,-389.7,-99.9,60.9,-175.2,-68.1,0,0,4008,0,204,0,
2.2300,163.5,61.5,-376.8,-69.6,75.3,-170.4,-56.1,0,0,4014,0,205,0,
2.2333,154.5,120.6,-345.3,-16.5,90.6,-159.0,-25.2,0,0,4020,0,206,0,
2.2367,158.4,119.4,-358.2,-12.9,84.3,-165.6,-29.4,0,0,4026,0,207,0,
2.2400,174.6,64.8,-385.2,-82.5,66.9,-169.8,-49.8,0,0,4032,0,208,0,
2.2433,170.4,52.2,-390.0,-103.8,62.7,-172.5,-59.1,0,0,4038,0,209,0,
2.2467,165.9,64.8,-380.7,-77.1,73.5,-164.1,-38.7,0,0,4044,0,210,0,
2.2500,151.5,128.1,-345.0,-19.5,89.1,-164.1,-22.5,0,0,4050,0,211,0,
2.2533,149.7,106.5,-351.0,-9.0,82.5,-168.9,-27.3,0,0,4056,0,212,0,
2.2567,153.6,50.4,-390.9,-83.7,61.2,-184.8,-68.7,0,0,4062,0,213,0,
2.2600,156.6,30.3,-398.7,-103.5,56.7,-182.7,-76.5,0,0,4068,0,214,0,
2.2633,159.9,62.7,-376.8,-76.5,72.3,-169.8,-54.6,0,0,4074,0,215,0,
2.2667,153.3,115.5,-348.6,-20.1,87.0,-159.3,-27.0,0,0,4080,0,216,0,
2.2700,150.0,115.5,-353.4,-10.5,86.7,-165.0,-24.3,0,0,4086,0,217,0,
2.2733,161.7,61.8,-384.3,-81.9,61.2,-177.9,-62.1,0,0,4092,0,218,0,
2.2767,175.8,51.6,-380.7,-98.4,66.9,-167.7,-55.2,0,0,4098,0,219,0,
2.2800,166.2,74.7,-370.8,-73.8,72.6,-167.7,-47.7,0,0,4104,0,220,0,
2.2833,156.6,103.2,-345.3,-17.7,90.3,-162.6,-23.1,0,0,4110,0,221,0,
2.2867,159.3,124.8,-344.7,-5.4,87.9,-165.9,-17.7,0,0,4116,0,222,0,
2.2900,166.5,56.4,-385.8,-77.4,66.6,-174.3,-55.5,0,0,4122,0,223,0,
2.2933,168.3,51.0,-382.5,-99.9,65.4,-172.2,-60.9,0,0,4128,0,224,0,
2.2967,162.6,77.7,-367.8,-73.8,78.6,-160.8,-46.8,0,0,4134,0,225,0,
2.3000,148.8,125.7,-350.1,-22.8,92.1,-161.4,-26.4,0,0,4140,0,226,0,
2.3033,152.4,121.2,-346.5,-13.8,89.4,-163.8,-24.6,0,0,4146,0,227,0,
2.3067,164.1,69.0,-387.6,-82.2,69.9,-165.0,-50.1,0,0,4152,0,228,0,
2.3100,168.6,44.7,-394.5,-109.5,66.9,-165.9,-61.2,0,0,4158,0,229,0,
2.3133,162.6,84.6,-366.0,-71.4,73.5,-162.0,-44.7,0,0,4164,0,230,0,
2.3167,153.3,111.6,-353.1,-17.4,89.4,-155.7,-24.0,0,0,4170,0,231,0,
2.3200,150.3,118.8,-352.2,-11.1,85.8,-161.4,-23.7,0,0,4176,0,232,0,
2.3233,176.1,61.2,-393.9,-85.2,67.2,-167.1,-50.7,0,0,4182,0,233,0,
2.3267,169.5,57.0,-387.0,-103.5,63.0,-163.2,-57.3,0,0,4188,0,234,0,
2.3300,150.0,90.3,-374.4,-75.0,72.3,-164.1,-47.1,0,0,4194,0,235,0,
2.3333,158.1,127.5,-346.2,-20.1,87.3,-156.9,-25.5,0,0,4200,0,236,0,
2.3367,160.5,131.7,-347.4,-11.7,89.4,-154.8,-15.0,0,0,4206,0,237,0,
2.3400,182.7,56.7,-395.4,-85.8,63.3,-168.3,-57.9,0,0,4212,0,238,0,
2.3433,176.7,49.8,-392.7,-108.9,62.1,-167.1,-70.8,0,0,4218,0,239,0,
2.3467,174.3,78.6,-367.5,-71.1,71.1,-166.2,-50.7,0,0,4224,0,240,0,
2.3500,153.6,135.9,-333.9,-12.9,85.2,-160.2,-24.9,0,0,4230,0,241,0,
2.3533,165.6,120.6,-347.4,-2.1,88.5,-161.1,-25.2,0,0,4236,0,242,0,
2.3567,175.5,63.9,-378.6,-70.8,66.3,-171.9,-58.2,0,0,4242,0,243,0,
2.3600,177.0,42.9,-389.1,-100.8,60.6,-175.8,-69.9,0,0,4248,0,244,0,
2.3633,161.4,70.5,-366.0,-70.8,68.1,-172.2,-61.5,0,0,4254,0,245,0,
2.3667,155.1,130.2,-340.2,-14.4,85.5,-165.3,-37.5,0,0,4260,0,246,0,
2.3700,156.6,104.1,-354.0,-11.7,79.8,-168.3,-45.6,0,0,4266,0,247,0,
2.3733,173.1,45.9,-390.9,-76.5,59.7,-176.1,-74.1,0,0,4272,0,248,0,
2.3767,170.7,37.2,-390.9,-99.9,58.2,-173.7,-79.8,0,0,4278,0,249,0,
2.3800,161.1,72.9,-371.7,-67.5,72.0,-165.3,-62.1,0,0,4284,0,250,0,
2.3833,147.3,128.1,-344.4,-14.1,89.4,-157.8,-32.7,0,0,4290,0,251,0,
2.3867,152.7,117.3,-351.0,-2.4,84.0,-162.9,-36.6,0,0,4296,0,252,0,
2.3900,165.6,63.6,-379.8,-73.5,58.5,-174.9,-68.1,0,0,4302,0,253,0,
2.3933,167.7,61.2,-383.7,-91.2,57.0,-171.3,-68.1,0,0,4308,0,254,0,
2.3967,169.5,83.4,-363.3,-63.6,74.7,-158.7,-53.4,0,0,4314,0,255,0,
2.4000,159.3,130.2,-339.0,-13.8,81.6,-164.1,-34.8,0,0,4320,0,0,0,
2.4033,164.7,137.4,-342.9,-2.4,83.7,-162.6,-27.9,0,0,4326,0,1,0,
2.4067,168.0,76.8,-378.0,-71.7,63.0,-169.5,-60.6,0,0,4332,0,2,0,
2.4100,177.3,64.8,-379.8,-93.0,61.2,-167.4,-69.9,0,0,4338,0,3,0,
2.4133,172.5,83.4,-365.7,-67.2,73.8,-159.3,-53.4,0,0,4344,0,4,0,
2.4167,159.3,126.6,-342.6,-14.7,88.2,-157.2,-26.7,0,0,4350,0,5,0,
2.4200,158.7,136.2,-349.5,-2.7,84.3,-161.1,-24.0,0,0,4356,0,6,0,
2.4233,178.5,69.0,-382.8,-78.9,62.1,-170.4,-57.3,0,0,4362,0,7,0,
2.4267,168.6,48.9,-390.6,-106.5,56.4,-171.9,-70.5,0,0,4368,0,8,0,
2.4300,164.7,83.4,-374.1,-77.4,68.4,-162.9,-57.9,0,0,4374,0,9,0,
2.4333,156.3,129.0,-339.6,-13.2,87.3,-151.2,-26.1,0,0,4380,0,10,0,
2.4367,161.4,140.1,-345.0,0.3,86.4,-157.5,-21.6,0,0,4386,0,11,0,
2.4400,168.6,74.4,-382.8,-77.1,63.6,-168.0,-56.7,0,0,4392,0,12,0,
2.4433,176.1,49.5,-390.3,-104.1,64.8,-163.8,-68.4,0,0,4398,0,13,0,
2.4467,162.6,93.3,-359.4,-68.1,75.0,-156.6,-49.2,0,0,4404,0,14,0,
2.4500,148.2,119.1,-342.6,-9.3,87.9,-159.6,-28.8,0,0,4410,0,15,0,
2.4533,163.8,134.1,-342.0,-3.6,82.8,-164.7,-27.6,0,0,4416,0,16,0,
2.4567,172.2,61.5,-388.8,-81.9,64.2,-163.5,-57.3,0,0,4422,0,17,0,
2.4600,178.2,50.1,-387.6,-104.7,60.3,-165.9,-65.7,0,0,4428,0,18,0,
2.4633,170.1,72.9,-368.7,-70.2,74.7,-158.1,-45.3,0,0,4434,0,19,0,
2.4667,157.5,133.5,-331.8,-7.8,87.3,-155.7,-15.3,0,0,4440,0,20,0,
2.4700,160.2,129.3,-343.2,-0.9,86.7,-156.6,-15.6,0,0,4446,0,21,0,
2.4733,175.5,65.7,-378.6,-77.7,65.1,-167.4,-52.5,0,0,4452,0,22,0,
2.4767,174.6,46.2,-393.9,-106.2,59.7,-166.8,-65.1,0,0,4458,0,23,0,
2.4800,160.5,77.4,-366.0,-70.5,71.1,-162.6,-48.6,0,0,4464,0,24,0,
2.4833,155.1,129.0,-342.3,-13.8,90.6,-156.0,-20.1,0,0,4470,0,25,0,
2.4867,157.8,138.9,-343.2,-0.6,89.4,-156.0,-12.3,0,0,4476,0,26,0,
2.4900,175.5,66.9,-391.2,-87.0,66.3,-165.6,-50.1,0,0,4482,0,27,0,
2.4933,168.0,54.6,-389.1,-105.3,62.7,-164.7,-60.6,0,0,4488,0,28,0,
2.4967,168.9,81.6,-375.3,-72.3,76.2,-158.1,-44.7,0,0,4494,0,29,0,
2.5000,155.7,131.7,-338.4,-12.9,91.8,-153.0,-12.9,0,0,4500,0,30,0,
2.5033,156.6,131.7,-352.8,-5.4,88.2,-162.0,-21.0,0,0,4506,0,31,0,
2.5067,176.4,66.9,-386.7,-78.9,63.3,-170.4,-54.9,0,0,4512,0,32,0,
2.5100,180.3,55.8,-383.1,-100.2,63.3,-167.7,-57.3,0,0,4518,0,33,0,
2.5133,171.9,86.4,-363.9,-69.6,73.5,-162.3,-43.2,0,0,4524,0,34,0,
2.5167,159.6,140.4,-331.5,-6.6,91.2,-151.8,-7.8,0,0,4530,0,35,0,
2.5200,167.4,136.8,-341.1,-0.6,86.4,-161.1,-11.7,0,0,4536,0,36,0,
2.5233,177.6,69.0,-379.5,-76.5,65.7,-168.3,-42.6,0,0,4542,0,37,0,
2.5267,177.9,52.8,-385.5,-101.7,62.7,-169.5,-56.7,0,0,4548,0,38,0,
2.5300,170.4,93.3,-360.9,-71.7,74.1,-159.0,-30.3,0,0,4554,0,39,0,
2.5333,157.5,143.7,-333.6,-12.6,90.9,-154.8,-9.0,0,0,4560,0,40,0,
2.5367,157.5,141.9,-343.2,-5.7,85.8,-158.4,-8.4,0,0,4566,0,41,0,
2.5400,173.4,74.4,-381.0,-78.6,57.0,-174.6,-46.8,0,0,4572,0,42,0,
2.5433,178.2,57.6,-383.7,-98.7,63.0,-161.1,-48.3,0,0,4578,0,43,0,
2.5467,169.8,89.7,-362.1,-67.5,74.7,-156.3,-30.9,0,0,4584,0,44,0,
2.5500,155.7,135.3,-336.9,-9.9,91.5,-152.7,-10.8,0,0,4590,0,45,0,
2.5533,151.5,134.7,-347.1,-7.8,85.5,-163.2,-15.6,0,0,4596,0,46,0,
2.5567,168.6,61.2,-391.2,-81.3,66.9,-163.5,-51.3,0,0,4602,0,47,0,
2.5600,165.3,47.4,-389.4,-109.5,62.4,-166.5,-59.4,0,0,4608,0,48,0,
2.5633,168.0,73.8,-368.4,-78.6,72.6,-168.3,-46.5,0,0,4614,0,49,0,
2.5667,156.0,131.7,-335.1,-15.0,94.8,-154.5,-9.0,0,0,4620,0,50,0,
2.5700,165.6,133.5,-351.9,-6.9,88.5,-157.2,-6.0,0,0,4626,0,51,0,
2.5733,176.4,67.5,-392.1,-86.4,70.8,-165.6,-41.7,0,0,4632,0,52,0,
2.5767,194.1,59.1,-385.5,-107.4,67.8,-159.0,-40.5,0,0,4638,0,53,0,
2.5800,181.8,96.9,-365.1,-74.1,76.2,-155.4,-23.4,0,0,4644,0,54,0,
2.5833,175.8,152.4,-336.3,-13.2,96.0,-147.3,7.5,0,0,4650,0,55,0,
2.5867,174.3,156.9,-340.2,-2.4,94.2,-150.0,6.9,0,0,4656,0,56,0,
2.5900,183.9,76.8,-384.9,-83.7,63.3,-165.3,-38.7,0,0,4662,0,57,0,
2.5933,185.4,48.6,-390.6,-108.3,64.8,-160.8,-48.9,0,0,4668,0,58,0,
2.5967,180.9,84.3,-364.5,-73.5,76.8,-155.4,-24.9,0,0,4674,0,59,0,
2.6000,164.1,143.7,-328.2,-12.6,91.5,-153.3,1.8,0,0,4680,0,60,0,
2.6033,167.7,142.2,-342.0,-6.3,93.9,-153.3,4.8,0,0,4686,0,61,0,
2.6067,182.7,70.2,-384.9,-83.1,69.9,-161.1,-38.4,0,0,4692,0,62,0,
2.6100,183.3,50.4,-393.6,-114.9,59.1,-175.2,-48.9,0,0,4698,0,63,0,
2.6133,164.4,78.3,-367.2,-77.1,73.2,-171.6,-37.8,0,0,4704,0,64,0,
2.6167,149.7,130.5,-341.4,-12.3,90.3,-167.7,-16.2,0,0,4710,0,65,0,
2.6200,164.7,126.9,-348.6,-5.4,84.6,-175.8,-13.8,0,0,4716,0,66,0,
2.6233,179.7,66.3,-385.5,-82.2,65.4,-180.6,-45.9,0,0,4722,0,67,0,
2.6267,184.2,45.9,-391.8,-109.8,63.0,-177.3,-54.6,0,0,4728,0,68,0,
2.6300,170.1,86.1,-362.7,-70.8,75.0,-167.4,-37.5,0,0,4734,0,69,0,
2.6333,165.9,126.9,-338.4,-10.5,87.9,-168.9,-11.1,0,0,4740,0,70,0,
2.6367,170.1,135.0,-341.1,0.0,92.7,-165.9,-3.0,0,0,4746,0,71,0,
2.6400,179.7,57.9,-388.8,-86.4,65.1,-181.2,-48.6,0,0,4752,0,72,0,
2.6433,181.2,42.0,-393.6,-106.8,63.3,-174.6,-51.0,0,0,4758,0,73,0,
2.6467,169.2,81.0,-370.8,-72.3,74.4,-169.5,-33.6,0,0,4764,0,74,0,
2.6500,164.4,131.1,-341.4,-9.9,93.6,-158.4,-6.9,0,0,4770,0,75,0,
2.6533,165.3,134.7,-345.0,-0.3,90.3,-162.3,-2.7,0,0,4776,0,76,0,
2.6567,181.5,59.7,-392.7,-80.1,71.1,-168.9,-42.0,0,0,4782,0,77,0,
2.6600,181.8,53.4,-390.9,-104.7,64.8,-170.7,-53.1,0,0,4788,0,78,0,
2.6633,178.8,86.1,-367.5,-72.3,75.3,-165.3,-34.2,0,0,4794,0,79,0,
2.6667,160.8,131.1,-339.6,-14.1,90.6,-161.1,-10.8,0,0,4800,0,80,0,
2.6700,170.1,133.8,-347.7,-6.0,91.5,-163.2,0.9,0,0,4806,0,81,0,
2.6733,184.5,62.4,-390.6,-84.9,66.6,-171.0,-37.8,0,0,4812,0,82,0,
2.6767,185.7,42.6,-394.5,-110.7,63.0,-173.1,-48.6,0,0,4818,0,83,0,
2.6800,176.7,74.7,-372.9,-75.0,75.0,-165.6,-32.7,0,0,4824,0,84,0,
2.6833,169.5,134.1,-338.1,-12.3,92.1,-155.4,0.3,0,0,4830,0,85,0,
2.6867,174.9,142.2,-344.7,-0.6,88.5,-164.7,-3.6,0,0,4836,0,86,0,
2.6900,180.6,68.7,-385.2,-86.1,64.2,-177.6,-38.4,0,0,4842,0,87,0,
2.6933,183.3,50.7,-391.2,-108.6,59.1,-177.6,-54.3,0,0,4848,0,88,0,
2.6967,176.1,72.9,-366.9,-75.0,71.1,-171.0,-37.2,0,0,4854,0,89,0,
2.7000,162.9,119.7,-339.9,-14.7,83.4,-165.6,-15.3,0,0,4860,0,90,0,
2.7033,165.9,135.9,-340.8,-2.1,81.6,-171.3,-13.8,0,0,4866,0,91,0,
2.7067,179.4,64.5,-386.4,-79.8,61.2,-181.2,-48.3,0,0,4872,0,92,0,
2.7100,180.0,45.3,-388.2,-109.5,61.2,-177.6,-55.5,0,0,4878,0,93,0,
2.7133,168.6,83.1,-360.9,-70.8,75.6,-168.6,-39.3,0,0,4884,0,94,0,
2.7167,166.8,126.9,-337.5,-11.4,90.0,-162.9,-12.3,0,0,4890,0,95,0,
2.7200,177.9,144.0,-337.8,2.4,87.3,-165.6,-4.2,0,0,4896,0,96,0,
2.7233,194.4,72.3,-377.7,-76.2,64.2,-177.3,-42.0,0,0,4902,0,97,0,
2.7267,186.3,49.2,-387.9,-105.9,63.3,-175.5,-56.4,0,0,4908,0,98,0,
2.7300,174.3,76.5,-367.5,-75.6,74.4,-170.1,-40.2,0,0,4914,0,99,0,
2.7333,163.8,131.1,-339.0,-18.0,90.9,-166.8,-13.5,0,0,4920,0,100,0,
2.7367,164.7,140.4,-340.2,0.9,88.8,-170.1,-14.1,0,0,4926,0,101,0,
2.7400,175.8,72.3,-387.6,-80.7,64.2,-175.2,-45.3,0,0,4932,0,102,0,
2.7433,179.7,43.2,-397.2,-111.6,66.3,-176.7,-60.0,0,0,4938,0,103,0,
2.7467,172.2,89.7,-366.3,-75.0,77.1,-167.1,-41.4,0,0,4944,0,104,0,
2.7500,155.7,132.3,-343.2,-15.6,93.3,-161.7,-13.5,0,0,4950,0,105,0,
2.7533,165.0,133.2,-350.1,-3.6,91.2,-163.5,-13.2,0,0,4956,0,106,0,
2.7567,172.5,69.3,-393.3,-82.5,66.9,-174.9,-51.0,0,0,4962,0,107,0,
2.7600,171.9,48.0,-398.7,-109.2,61.5,-173.7,-62.4,0,0,4968,0,108,0,
2.7633,162.6,72.6,-378.6,-71.7,74.4,-170.1,-45.0,0,0,4974,0,109,0,
2.7667,162.3,135.0,-340.5,-7.8,97.2,-155.7,-9.0,0,0,4980,0,110,0,
2.7700,154.5,132.3,-352.5,2.1,88.2,-164.1,-13.5,0,0,4986,0,111,0,
2.7733,174.6,64.5,-390.6,-78.6,62.7,-173.4,-46.8,0,0,4992,0,112,0,
2.7767,166.2,37.5,-399.9,-110.4,57.0,-176.7,-67.8,0,0,4998,0,113,0,
2.7800,153.0,62.1,-379.2,-76.5,72.0,-172.2,-52.8,0,0,5004,0,114,0,
2.7833,140.4,119.7,-348.0,-16.2,87.0,-167.1,-25.8,0,0,5010,0,115,0,
2.7867,158.4,131.4,-344.1,0.9,87.9,-168.0,-19.8,0,0,5016,0,116,0,
2.7900,174.6,66.3,-386.7,-79.2,62.7,-176.1,-50.4,0,0,5022,0,117,0,
2.7933,174.3,42.9,-393.9,-104.7,66.0,-172.8,-62.4,0,0,5028,0,118,0,
2.7967,156.6,69.6,-372.9,-69.6,74.7,-168.0,-51.3,0,0,5034,0,119,0,
2.8000,143.7,128.1,-341.4,-4.5,91.8,-161.4,-22.5,0,0,5040,0,120,0,
2.8033,153.9,135.3,-345.0,4.5,91.5,-163.5,-15.3,0,0,5046,0,121,0,
2.8067,165.6,65.4,-387.0,-78.0,66.3,-175.8,-53.1,0,0,5052,0,122,0,
2.8100,168.9,50.4,-388.8,-106.2,64.2,-175.8,-67.5,0,0,5058,0,123,0,
2.8133,156.9,77.4,-372.0,-72.9,75.0,-170.7,-53.7,0,0,5064,0,124,0,
2.8167,143.4,130.2,-340.8,-8.1,92.4,-164.4,-24.3,0,0,5070,0,125,0,
2.8200,155.4,137.4,-348.0,1.2,88.5,-162.6,-18.6,0,0,5076,0,126,0,
2.8233,170.1,63.3,-389.1,-79.2,64.2,-176.7,-61.8,0,0,5082,0,127,0,
2.8267,172.2,52.5,-391.8,-99.3,60.9,-175.2,-70.5,0,0,5088,0,128,0,
2.8300,168.3,81.6,-371.4,-67.2,76.2,-166.2,-46.2,0,0,5094,0,129,0,
2.8333,157.2,142.8,-342.6,-8.1,89.1,-158.7,-19.5,0,0,5100,0,130,0,
2.8367,168.0,146.1,-342.9,6.3,91.8,-159.9,-14.1,0,0,5106,0,131,0,
2.8400,186.3,72.9,-388.5,-76.2,68.1,-169.2,-50.4,0,0,5112,0,132,0,
2.8433,188.4,61.8,-390.9,-103.8,69.3,-160.8,-55.8,0,0,5118,0,133,0,
2.8467,173.1,87.0,-370.2,-69.3,76.5,-160.5,-47.7,0,0,5124,0,134,0,
2.8500,158.1,126.9,-349.2,-17.4,88.8,-159.0,-19.8,0,0,5130,0,135,0,
2.8533,157.5,134.4,-352.5,-3.0,88.5,-165.0,-20.7,0,0,5136,0,136,0,
2.8567,175.2,75.0,-386.1,-77.4,66.0,-170.7,-57.3,0,0,5142,0,137,0,
2.8600,180.0,55.2,-395.7,-103.8,62.7,-172.2,-66.9,0,0,5148,0,138,0,
2.8633,173.1,80.7,-375.0,-70.2,74.4,-162.6,-53.4,0,0,5154,0,139,0,
2.8667,156.6,133.2,-340.8,-8.1,92.1,-157.5,-25.2,0,0,5160,0,140,0,
2.8700,160.5,133.5,-346.8,6.6,90.6,-163.8,-24.6,0,0,5166,0,141,0,
2.8733,175.8,61.5,-388.2,-73.8,66.0,-172.8,-64.5,0,0,5172,0,142,0,
2.8767,169.2,47.7,-394.2,-97.5,60.6,-174.3,-73.5,0,0,5178,0,143,0,
2.8800,162.6,78.0,-374.4,-69.9,70.5,-173.7,-61.5,0,0,5184,0,144,0,
2.8833,156.3,135.3,-340.5,-2.1,88.8,-165.9,-26.1,0,0,5190,0,145,0,
2.8867,152.7,132.6,-344.7,9.0,85.2,-170.4,-30.0,0,0,5196,0,146,0,
2.8900,164.1,68.7,-388.8,-77.4,61.2,-183.3,-66.9,0,0,5202,0,147,0,
2.8933,168.6,51.0,-396.3,-105.0,56.4,-183.0,-81.6,0,0,5208,0,148,0,
2.8967,161.4,81.0,-376.2,-63.9,73.5,-169.8,-56.4,0,0,5214,0,149,0,
2.9000,151.5,125.7,-346.5,-2.7,91.2,-166.8,-27.9,0,0,5220,0,150,0,
2.9033,163.8,125.1,-356.7,5.4,91.5,-165.0,-28.2,0,0,5226,0,151,0,
2.9067,173.1,64.5,-392.1,-73.5,68.7,-174.9,-62.4,0,0,5232,0,152,0,
2.9100,177.0,45.6,-398.1,-101.1,62.4,-174.6,-72.9,0,0,5238,0,153,0,
2.9133,163.5,77.7,-377.4,-67.5,70.5,-168.9,-52.2,0,0,5244,0,154,0,
2.9167,159.3,131.4,-345.0,0.6,87.9,-165.9,-25.5,0,0,5250,0,155,0,
2.9200,154.2,141.3,-350.1,9.6,84.9,-171.6,-26.7,0,0,5256,0,156,0,
2.9233,170.7,71.1,-394.5,-69.9,65.4,-177.3,-55.5,0,0,5262,0,157,0,
2.9267,179.7,58.5,-392.1,-96.0,63.6,-170.7,-53.1,0,0,5268,0,158,0,
2.9300,180.6,106.2,-361.5,-57.6,73.2,-161.7,-28.5,0,0,5274,0,159,0,
2.9333,168.6,145.8,-337.2,-1.8,88.5,-159.3,-10.8,0,0,5280,0,160,0,
2.9367,172.5,151.2,-343.5,8.4,85.5,-164.1,-10.5,0,0,5286,0,161,0,
2.9400,188.1,75.0,-386.7,-77.4,58.5,-177.9,-52.5,0,0,5292,0,162,0,
2.9433,184.5,56.7,-392.1,-101.7,60.6,-174.9,-61.2,0,0,5298,0,163,0,
2.9467,187.8,94.8,-366.6,-58.8,74.7,-164.4,-37.8,0,0,5304,0,164,0,
2.9500,164.1,151.2,-333.0,1.2,88.5,-161.7,-12.3,0,0,5310,0,165,0,
2.9533,169.2,149.7,-341.4,12.9,86.1,-164.7,-13.2,0,0,5316,0,166,0,
2.9567,180.0,78.9,-382.8,-71.1,63.0,-179.1,-45.9,0,0,5322,0,167,0,
2.9600,186.0,62.4,-387.0,-100.2,60.0,-175.8,-53.1,0,0,5328,0,168,0,
2.9633,173.7,85.5,-369.6,-72.0,66.9,-175.8,-40.2,0,0,5334,0,169,0,
2.9667,165.3,147.6,-333.9,-7.8,87.9,-164.1,-1.5,0,0,5340,0,170,0,
2.9700,172.2,143.4,-346.8,3.0,83.4,-170.7,-6.9,0,0,5346,0,171,0,
2.9733,186.9,80.1,-379.5,-76.5,63.3,-177.9,-43.8,0,0,5352,0,172,0,
2.9767,185.4,56.4,-389.7,-99.9,56.4,-180.0,-59.4,0,0,5358,0,173,0,
2.9800,180.6,94.2,-364.2,-71.1,72.3,-171.0,-39.6,0,0,5364,0,174,0,
2.9833,162.0,149.4,-334.8,-8.1,90.3,-159.0,-13.8,0,0,5370,0,175,0,
2.9867,173.1,148.2,-342.6,4.8,88.5,-156.6,-3.9,0,0,5376,0,176,0,
2.9900,183.9,82.5,-379.2,-75.6,66.0,-167.7,-38.7,0,0,5382,0,177,0,
2.9933,192.9,61.2,-384.6,-102.9,63.6,-173.7,-50.1,0,0,5388,0,178,0,
2.9967,184.5,93.3,-366.0,-72.6,78.3,-160.5,-27.0,0,0,5394,0,179,0,
3.0000,172.5,150.0,-334.8,-12.3,94.8,-154.8,2.7,0,0,5400,0,180,0,
3.0033,175.5,150.6,-346.5,-2.7,91.5,-159.3,0.6,0,0,5406,0,181,0,
3.0067,189.0,82.2,-393.0,-80.1,69.6,-168.0,-33.6,0,0,5412,0,182,0,
3.0100,187.2,63.6,-396.6,-108.3,64.2,-167.4,-45.9,0,0,5418,0,183,0,
3.0133,175.5,87.0,-381.6,-73.5,74.4,-166.5,-37.8,0,0,5424,0,184,0,
3.0167,161.1,137.4,-347.1,-15.0,90.9,-159.6,-10.8,0,0,5430,0,185,0,
3.0200,170.4,137.4,-355.5,-1.5,90.3,-166.2,-12.9,0,0,5436,0,186,0,
3.0233,187.5,61.5,-396.3,-78.6,67.2,-174.3,-43.8,0,0,5442,0,187,0,
3.0267,183.0,42.3,-400.5,-106.8,64.5,-174.3,-57.0,0,0,5448,0,188,0,
3.0300,175.5,77.7,-378.3,-72.3,71.4,-165.3,-40.5,0,0,5454,0,189,0,
3.0333,169.8,131.1,-347.4,-9.9,89.1,-162.9,-11.1,0,0,5460,0,190,0,
3.0367,167.1,140.7,-351.3,1.5,88.2,-168.3,-8.4,0,0,5466,0,191,0,
3.0400,178.2,70.2,-394.2,-79.2,59.1,-187.5,-52.8,0,0,5472,0,192,0,
3.0433,178.8,58.2,-394.5,-108.9,56.1,-185.4,-62.1,0,0,5478,0,193,0,
3.0467,169.2,79.2,-382.2,-82.8,66.0,-181.2,-51.0,0,0,5484,0,194,0,
3.0500,155.7,126.0,-347.4,-19.2,82.8,-173.7,-21.9,0,0,5490,0,195,0,
3.0533,160.2,123.3,-356.7,-7.5,76.2,-178.5,-25.8,0,0,5496,0,196,0,
3.0567,170.7,63.9,-392.4,-87.3,55.5,-189.9,-60.6,0,0,5502,0,197,0,
3.0600,177.6,40.8,-402.0,-114.6,49.5,-190.2,-74.1,0,0,5508,0,198,0,
3.0633,168.3,80.4,-374.7,-75.0,67.2,-181.5,-54.0,0,0,5514,0,199,0,
3.0667,156.0,126.3,-347.1,-13.5,78.9,-178.5,-31.2,0,0,5520,0,200,0,
3.0700,160.8,128.1,-354.9,-3.6,82.8,-177.9,-18.6,0,0,5526,0,201,0,
3.0733,176.7,61.5,-396.3,-84.0,60.0,-180.9,-44.1,0,0,5532,0,202,0,
3.0767,177.3,47.7,-396.6,-105.9,57.9,-182.1,-54.6,0,0,5538,0,203,0,
3.0800,170.7,69.0,-386.1,-82.8,71.1,-172.8,-45.3,0,0,5544,0,204,0,
3.0833,158.1,137.1,-346.8,-14.1,87.9,-168.6,-15.3,0,0,5550,0,205,0,
3.0867,164.1,134.7,-359.1,-6.0,82.5,-175.2,-14.4,0,0,5556,0,206,0,
3.0900,176.4,62.4,-403.2,-88.5,60.9,-186.9,-54.6,0,0,5562,0,207,0,
3.0933,171.0,51.0,-405.3,-115.2,53.1,-184.5,-58.8,0,0,5568,0,208,0,
3.0967,170.7,79.2,-384.9,-80.7,68.4,-178.5,-48.0,0,0,5574,0,209,0,
3.1000,150.9,116.4,-357.6,-19.8,81.0,-172.5,-24.9,0,0,5580,0,210,0,
3.1033,160.5,132.3,-355.2,-4.5,81.3,-175.5,-17.4,0,0,5586,0,211,0,
3.1067,175.5,61.5,-398.7,-84.3,56.7,-190.5,-60.9,0,0,5592,0,212,0,
3.1100,181.2,37.8,-402.6,-108.9,55.5,-185.1,-73.2,0,0,5598,0,213,0,
3.1133,176.4,79.2,-375.9,-72.9,71.4,-172.5,-52.5,0,0,5604,0,214,0,
3.1167,158.4,120.3,-351.3,-14.1,80.7,-171.9,-28.8,0,0,5610,0,215,0,
3.1200,168.3,128.4,-349.5,-0.9,77.7,-177.6,-19.2,0,0,5616,0,216,0,
3.1233,175.2,65.7,-392.1,-82.8,59.1,-188.1,-58.8,0,0,5622,0,217,0,
3.1267,182.1,46.2,-396.0,-111.3,51.6,-189.3,-63.3,0,0,5628,0,218,0,
3.1300,167.4,72.9,-377.4,-80.7,66.6,-176.7,-49.5,0,0,5634,0,219,0,
3.1333,157.8,115.5,-348.6,-22.2,85.5,-172.5,-24.6,0,0,5640,0,220,0,
3.1367,154.5,126.0,-355.2,-10.8,85.8,-170.4,-18.6,0,0,5646,0,221,0,
3.1400,181.8,61.2,-396.3,-89.7,60.9,-181.5,-56.1,0,0,5652,0,222,0,
3.1433,185.1,46.8,-393.9,-115.8,60.0,-179.1,-60.9,0,0,5658,0,223,0,
3.1467,177.6,81.3,-375.3,-82.2,69.9,-174.0,-47.7,0,0,5664,0,224,0,
3.1500,161.4,126.9,-350.7,-25.8,87.0,-166.8,-21.3,0,0,5670,0,225,0,
3.1533,167.1,139.5,-350.7,-8.7,81.6,-171.9,-11.1,0,0,5676,0,226,0,
3.1567,178.5,75.0,-389.7,-81.0,63.3,-178.5,-47.4,0,0,5682,0,227,0,
3.1600,182.7,51.6,-396.6,-109.5,57.3,-178.2,-63.6,0,0,5688,0,228,0,
3.1633,175.5,86.4,-372.6,-82.2,68.1,-177.0,-44.7,0,0,5694,0,229,0,
3.1667,161.4,135.0,-344.4,-19.2,82.2,-172.5,-21.6,0,0,5700,0,230,0,
3.1700,162.6,141.3,-350.1,-6.0,82.5,-169.5,-15.3,0,0,5706,0,231,0,
3.1733,173.4,72.9,-392.1,-85.5,59.1,-179.7,-50.7,0,0,5712,0,232,0,
3.1767,172.8,40.2,-402.6,-122.7,51.0,-186.0,-63.6,0,0,5718,0,233,0,
3.1800,161.7,70.5,-385.8,-90.3,65.1,-177.6,-48.0,0,0,5724,0,234,0,
3.1833,147.6,123.6,-356.7,-31.2,80.7,-173.4,-23.4,0,0,5730,0,235,0,
3.1867,153.0,118.8,-363.0,-13.5,82.2,-174.0,-16.2,0,0,5736,0,236,0,
3.1900,167.1,53.1,-401.7,-93.9,58.2,-186.9,-52.5,0,0,5742,0,237,0,
3.1933,165.0,39.3,-405.3,-120.6,50.4,-188.7,-66.6,0,0,5748,0,238,0,
3.1967,152.1,67.8,-382.2,-86.4,61.2,-186.0,-62.7,0,0,5754,0,239,0,
3.2000,138.9,112.5,-357.3,-19.5,81.3,-175.2,-39.0,0,0,5760,0,240,0,
3.2033,154.8,126.3,-353.4,-8.4,83.4,-174.9,-18.0,0,0,5766,0,241,0,
3.2067,168.6,61.2,-397.5,-94.5,55.5,-185.4,-42.6,0,0,5772,0,242,0,
3.2100,169.2,47.4,-401.7,-120.0,50.1,-186.6,-55.5,0,0,5778,0,243,0,
3.2133,160.8,78.0,-380.1,-81.3,64.8,-177.6,-38.7,0,0,5784,0,244,0,
3.2167,140.4,128.7,-347.7,-21.9,83.7,-171.0,-12.3,0,0,5790,0,245,0,
3.2200,135.9,141.3,-357.3,-12.9,78.3,-175.2,0.0,0,0,5796,0,246,0,
3.2233,148.2,70.8,-393.9,-93.3,57.3,-184.5,-39.6,0,0,5802,0,247,0,
3.2267,152.1,45.9,-403.2,-123.0,57.9,-180.6,-53.1,0,0,5808,0,248,0,
3.2300,151.5,93.9,-373.2,-85.8,67.8,-174.9,-28.5,0,0,5814,0,249,0,
3.2333,134.7,152.1,-340.8,-24.3,84.3,-167.1,-1.5,0,0,5820,0,250,0,
3.2367,141.3,150.9,-342.9,-7.8,86.7,-165.3,11.4,0,0,5826,0,251,0,
3.2400,150.0,77.7,-390.6,-96.3,62.1,-171.0,-15.3,0,0,5832,0,252,0,
3.2433,159.6,52.8,-394.5,-120.3,61.5,-170.1,-29.4,0,0,5838,0,253,0,
3.2467,144.3,84.9,-375.3,-85.2,73.2,-164.7,-25.5,0,0,5844,0,254,0,
3.2500,127.8,146.1,-340.8,-26.7,85.2,-164.1,6.0,0,0,5850,0,255,0,
3.2533,136.8,143.1,-354.0,-18.3,84.0,-165.0,14.4,0,0,5856,0,0,0,
3.2567,150.6,87.6,-388.8,-94.8,59.1,-178.8,-25.2,0,0,5862,0,1,0,
3.2600,146.1,61.2,-398.1,-120.3,57.9,-171.3,-28.5,0,0,5868,0,2,0,
3.2633,147.3,85.8,-381.0,-90.0,72.0,-170.1,-8.4,0,0,5874,0,3,0,
3.2667,135.6,143.7,-339.9,-21.0,85.5,-160.5,5.1,0,0,5880,0,4,0,
3.2700,138.3,153.6,-348.6,-11.1,79.5,-171.3,14.1,0,0,5886,0,5,0,
3.2733,145.8,83.7,-385.8,-87.6,57.3,-181.8,-26.4,0,0,5892,0,6,0,
3.2767,148.5,52.2,-396.0,-118.2,53.7,-182.1,-36.0,0,0,5898,0,7,0,
3.2800,141.9,97.2,-366.6,-75.3,63.3,-180.9,-18.0,0,0,5904,0,8,0,
3.2833,139.5,141.6,-342.6,-20.1,83.4,-169.5,13.2,0,0,5910,0,9,0,
3.2867,138.6,145.8,-350.4,-6.6,84.9,-168.6,17.1,0,0,5916,0,10,0,
3.2900,151.8,74.1,-392.4,-85.5,57.3,-174.0,-18.0,0,0,5922,0,11,0,
3.2933,154.5,61.5,-396.3,-114.9,57.6,-176.1,-31.2,0,0,5928,0,12,0,
3.2967,141.6,102.0,-370.8,-81.3,65.1,-175.2,-11.1,0,0,5934,0,13,0,
3.3000,129.3,135.3,-353.1,-30.6,77.4,-174.3,4.5,0,0,5940,0,14,0,
3.3033,132.3,123.6,-360.6,-21.0,71.7,-181.2,-2.7,0,0,5946,0,15,0,
3.3067,141.6,63.3,-397.2,-97.2,50.4,-192.9,-40.8,0,0,5952,0,16,0,
3.3100,131.4,66.6,-401.4,-121.5,45.9,-190.2,-43.5,0,0,5958,0,17,0,
3.3133,130.5,72.9,-387.0,-90.9,56.7,-191.4,-37.5,0,0,5964,0,18,0,
3.3167,119.4,123.3,-355.8,-32.4,69.9,-183.0,-12.3,0,0,5970,0,19,0,
3.3200,122.4,138.3,-360.6,-24.3,69.9,-183.3,-5.1,0,0,5976,0,20,0,
3.3233,133.2,69.9,-395.4,-95.4,50.7,-188.7,-40.2,0,0,5982,0,21,0,
3.3267,143.7,45.3,-406.2,-123.9,44.4,-198.0,-50.4,0,0,5988,0,22,0,
3.3300,142.2,86.7,-378.3,-86.4,60.9,-180.6,-29.4,0,0,5994,0,23,0,
3.3333,123.9,117.3,-359.4,-42.0,77.4,-178.2,-14.4,0,0,6000,0,24,0,
3.3367,134.7,121.2,-360.6,-27.9,74.4,-183.9,-8.7,0,0,6006,0,25,0,
3.3400,146.1,65.4,-395.7,-94.5,53.1,-192.3,-34.8,0,0,6012,0,26,0,
3.3433,144.9,63.9,-392.1,-111.3,53.1,-189.0,-41.7,0,0,6018,0,27,0,
3.3467,139.5,85.8,-377.4,-88.8,67.2,-184.8,-30.0,0,0,6024,0,28,0,
3.3500,138.9,122.1,-354.0,-38.1,78.3,-177.3,-12.9,0,0,6030,0,29,0,
3.3533,133.2,132.3,-356.1,-29.4,77.1,-180.0,-6.0,0,0,6036,0,30,0,
3.3567,150.6,76.5,-386.4,-90.9,56.1,-192.0,-31.8,0,0,6042,0,31,0,
3.3600,151.8,69.6,-387.0,-109.8,60.0,-185.4,-33.3,0,0,6048,0,32,0,
3.3633,144.0,83.4,-370.2,-80.7,69.9,-181.8,-28.5,0,0,6054,0,33,0,
3.3667,128.1,132.6,-348.0,-33.6,78.6,-171.6,-3.9,0,0,6060,0,34,0,
3.3700,147.6,125.1,-354.3,-26.1,74.1,-181.8,-6.3,0,0,6066,0,35,0,
3.3733,154.8,86.1,-381.0,-87.9,57.0,-188.1,-38.1,0,0,6072,0,36,0,
3.3767,156.6,65.7,-387.6,-107.1,54.9,-183.3,-39.6,0,0,6078,0,37,0,
3.3800,141.0,87.0,-371.1,-75.9,65.7,-178.2,-26.4,0,0,6084,0,38,0,
3.3833,120.0,126.3,-348.9,-33.6,75.9,-177.6,-7.2,0,0,6090,0,39,0,
3.3867,114.9,128.7,-358.5,-27.3,77.7,-179.4,-9.6,0,0,6096,0,40,0,
3.3900,146.1,79.5,-386.1,-87.0,49.5,-193.8,-38.4,0,0,6102,0,41,0,
3.3933,138.6,63.3,-388.2,-109.5,49.5,-196.5,-47.7,0,0,6108,0,42,0,
3.3967,139.2,83.1,-376.5,-80.7,64.5,-185.1,-27.6,0,0,6114,0,43,0,
3.4000,135.6,123.3,-355.8,-36.9,77.7,-178.2,-7.8,0,0,6120,0,44,0,
3.4033,128.1,139.8,-348.6,-24.0,75.6,-183.0,-4.5,0,0,6126,0,45,0,
3.4067,144.0,72.9,-386.7,-89.1,58.2,-180.0,-33.3,0,0,6132,0,46,0,
3.4100,149.7,62.7,-389.7,-106.2,59.1,-182.4,-38.7,0,0,6138,0,47,0,
3.4133,138.9,77.4,-377.1,-79.8,66.6,-181.5,-28.5,0,0,6144,0,48,0,
3.4167,132.0,119.1,-353.7,-32.4,81.0,-171.6,-1.5,0,0,6150,0,49,0,
3.4200,134.4,123.6,-355.5,-29.7,74.7,-179.7,-2.7,0,0,6156,0,50,0,
3.4233,145.2,72.0,-388.2,-89.4,59.7,-185.7,-34.2,0,0,6162,0,51,0,
3.4267,139.5,50.7,-401.1,-114.3,50.1,-191.4,-51.3,0,0,6168,0,52,0,
3.4300,133.2,79.8,-382.2,-86.7,63.3,-188.1,-39.0,0,0,6174,0,53,0,
3.4333,119.1,122.4,-363.6,-40.2,72.3,-185.4,-18.3,0,0,6180,0,54,0,
3.4367,124.8,114.3,-369.9,-34.5,76.8,-183.3,-16.8,0,0,6186,0,55,0,
3.4400,135.6,66.6,-401.4,-93.3,59.4,-185.4,-39.6,0,0,6192,0,56,0,
3.4433,132.6,49.5,-404.4,-112.8,56.1,-187.2,-51.9,0,0,6198,0,57,0,
3.4467,132.9,75.3,-383.7,-83.4,64.8,-183.3,-36.3,0,0,6204,0,58,0,
3.4500,128.4,118.8,-357.6,-41.7,74.4,-178.5,-15.9,0,0,6210,0,59,0,
3.4533,133.2,132.9,-359.1,-22.5,77.7,-175.8,-8.7,0,0,6216,0,60,0,
3.4567,142.8,68.7,-396.9,-92.1,57.6,-188.1,-44.7,0,0,6222,0,61,0,
3.4600,139.5,53.1,-405.3,-122.1,49.5,-191.4,-55.8,0,0,6228,0,62,0,
3.4633,131.1,79.2,-385.2,-92.7,57.3,-193.8,-45.3,0,0,6234,0,63,0,
3.4667,126.6,114.6,-358.5,-33.0,76.2,-182.1,-20.4,0,0,6240,0,64,0,
3.4700,129.3,122.4,-361.5,-20.7,77.1,-180.0,-13.8,0,0,6246,0,65,0,
3.4733,150.0,56.4,-403.8,-97.2,54.6,-184.8,-39.0,0,0,6252,0,66,0,
3.4767,145.8,49.5,-404.1,-120.3,53.1,-184.5,-45.0,0,0,6258,0,67,0,
3.4800,134.1,74.1,-388.8,-92.1,61.8,-180.0,-33.9,0,0,6264,0,68,0,
3.4833,123.0,113.7,-361.8,-42.0,76.8,-176.1,-8.4,0,0,6270,0,69,0,
3.4867,118.2,114.3,-368.4,-28.2,78.3,-179.7,-10.2,0,0,6276,0,70,0,
3.4900,132.3,57.6,-400.8,-96.3,54.9,-189.9,-50.1,0,0,6282,0,71,0,
3.4933,135.9,49.2,-402.9,-115.8,55.8,-185.7,-44.7,0,0,6288,0,72,0,
3.4967,137.1,83.4,-378.0,-84.9,66.0,-179.1,-30.9,0,0,6294,0,73,0,
3.5000,123.9,123.9,-357.6,-35.7,80.1,-176.4,-7.8,0,0,6300,0,74,0,
3.5033,135.9,131.1,-359.4,-24.6,78.6,-177.3,-5.7,0,0,6306,0,75,0,
3.5067,135.6,73.2,-396.3,-90.3,62.1,-183.9,-33.9,0,0,6312,0,76,0,
3.5100,140.7,55.8,-401.1,-117.0,54.9,-182.4,-43.5,0,0,6318,0,77,0,
3.5133,132.9,80.1,-381.6,-90.0,66.6,-179.1,-32.4,0,0,6324,0,78,0,
3.5167,120.3,125.4,-358.8,-35.4,84.0,-170.1,-7.8,0,0,6330,0,79,0,
3.5200,131.4,129.0,-361.5,-27.6,79.5,-175.8,0.9,0,0,6336,0,80,0,
3.5233,144.9,66.3,-397.2,-88.8,59.7,-185.1,-31.5,0,0,6342,0,81,0,
3.5267,138.0,52.2,-400.8,-108.3,59.4,-182.4,-40.8,0,0,6348,0,82,0,
3.5300,130.8,77.7,-385.5,-79.5,66.3,-181.5,-32.1,0,0,6354,0,83,0,
3.5333,122.7,123.0,-363.0,-32.4,78.9,-175.5,-12.0,0,0,6360,0,84,0,
3.5367,123.9,127.8,-364.8,-20.7,76.8,-179.4,-10.8,0,0,6366,0,85,0,
3.5400,136.8,68.1,-402.3,-93.0,52.2,-189.9,-46.2,0,0,6372,0,86,0,
3.5433,134.1,55.5,-405.0,-113.7,54.0,-186.6,-52.5,0,0,6378,0,87,0,
3.5467,125.4,72.0,-389.7,-82.2,63.0,-185.1,-40.5,0,0,6384,0,88,0,
3.5500,114.9,108.0,-367.2,-34.2,73.5,-180.6,-23.1,0,0,6390,0,89,0,
3.5533,120.6,114.9,-373.5,-23.7,75.6,-180.9,-17.7,0,0,6396,0,90,0,
3.5567,130.8,62.4,-408.0,-92.1,54.6,-191.4,-47.1,0,0,6402,0,91,0,
3.5600,126.9,38.7,-417.0,-119.4,49.8,-192.9,-61.2,0,0,6408,0,92,0,
3.5633,117.9,59.7,-402.3,-93.3,57.9,-191.7,-50.1,0,0,6414,0,93,0,
3.5667,113.7,111.3,-369.0,-37.8,75.6,-183.6,-25.2,0,0,6420,0,94,0,
3.5700,118.2,114.3,-375.6,-24.9,71.7,-187.8,-27.9,0,0,6426,0,95,0,
3.5733,126.3,53.7,-409.8,-94.2,52.2,-197.4,-62.1,0,0,6432,0,96,0,
3.5767,133.2,42.3,-413.7,-111.0,48.3,-193.8,-64.8,0,0,6438,0,97,0,
3.5800,134.7,67.5,-393.0,-84.6,62.1,-186.0,-48.0,0,0,6444,0,98,0,
3.5833,121.8,113.1,-366.3,-28.5,75.9,-183.0,-28.5,0,0,6450,0,99,0,
3.5867,124.5,116.4,-367.2,-18.6,74.7,-184.8,-24.6,0,0,6456,0,100,0,
3.5900,131.7,55.5,-406.8,-90.9,54.9,-192.6,-53.1,0,0,6462,0,101,0,
3.5933,140.4,47.4,-408.6,-108.6,52.2,-190.5,-59.1,0,0,6468,0,102,0,
3.5967,135.3,76.2,-387.3,-80.1,58.8,-184.8,-48.0,0,0,6474,0,103,0,
3.6000,131.4,120.9,-362.7,-32.1,73.5,-174.0,-23.7,0,0,6480,0,104,0,
3.6033,132.9,135.9,-361.2,-17.4,75.6,-177.3,-14.4,0,0,6486,0,105,0,
3.6067,145.8,87.0,-389.7,-78.6,56.4,-183.6,-48.0,0,0,6492,0,106,0,
3.6100,151.5,62.7,-395.4,-105.0,51.0,-182.1,-48.3,0,0,6498,0,107,0,
3.6133,139.2,78.3,-382.5,-79.5,62.4,-174.0,-44.4,0,0,6504,0,108,0,
3.6167,133.5,113.1,-363.9,-36.0,71.7,-182.4,-30.9,0,0,6510,0,109,0,
3.6200,128.7,125.4,-365.7,-22.5,75.3,-174.3,-19.8,0,0,6516,0,110,0,
3.6233,143.4,70.2,-399.3,-93.6,54.9,-185.1,-52.2,0,0,6522,0,111,0,
3.6267,142.5,49.8,-406.2,-115.8,56.1,-175.2,-55.2,0,0,6528,0,112,0,
3.6300,136.5,72.9,-387.0,-86.1,63.6,-178.8,-43.2,0,0,6534,0,113,0,
3.6333,133.5,119.7,-360.9,-33.6,75.3,-178.8,-25.2,0,0,6540,0,114,0,
3.6367,114.9,142.5,-357.6,-17.7,78.3,-170.1,-14.1,0,0,6546,0,115,0,
3.6400,147.0,74.7,-396.0,-90.6,55.2,-189.0,-52.8,0,0,6552,0,116,0,
3.6433,135.3,63.6,-396.9,-113.1,52.5,-181.2,-55.2,0,0,6558,0,117,0,
3.6467,132.9,76.2,-389.4,-87.9,61.5,-183.9,-38.4,0,0,6564,0,118,0,
3.6500,108.3,126.9,-357.3,-35.1,77.7,-167.7,-23.4,0,0,6570,0,119,0,
3.6533,136.8,125.7,-365.4,-21.0,79.5,-174.3,-18.0,0,0,6576,0,120,0,
3.6567,139.2,76.5,-389.4,-86.7,52.8,-183.9,-45.9,0,0,6582,0,121,0,
3.6600,141.6,58.2,-402.0,-112.5,54.9,-181.8,-56.7,0,0,6588,0,122,0,
3.6633,131.4,91.8,-377.7,-82.2,68.7,-172.5,-42.9,0,0,6594,0,123,0,
3.6667,125.1,128.1,-353.7,-29.7,77.1,-183.3,-23.7,0,0,6600,0,124,0,
3.6700,120.3,147.3,-360.3,-18.3,78.3,-174.0,-0.3,0,0,6606,0,125,0,
3.6733,140.1,88.8,-392.1,-86.7,58.2,-185.7,-51.9,0,0,6612,0,126,0,
3.6767,138.0,57.0,-403.5,-112.2,55.2,-180.9,-52.2,0,0,6618,0,127,0,
3.6800,122.1,83.1,-383.1,-82.8,66.3,-171.9,-40.2,0,0,6624,0,128,0,
3.6833,123.9,121.2,-363.3,-31.5,79.5,-172.8,-15.3,0,0,6630,0,129,0,
3.6867,118.2,131.7,-359.4,-17.4,78.6,-177.9,-21.9,0,0,6636,0,130,0,
3.6900,128.4,93.6,-382.8,-87.0,59.7,-184.5,-44.4,0,0,6642,0,131,0,
3.6933,135.9,68.4,-395.4,-110.4,54.9,-191.4,-59.4,0,0,6648,0,132,0,
3.6967,129.6,60.6,-393.9,-85.5,64.8,-181.2,-48.9,0,0,6654,0,133,0,
3.7000,110.4,133.2,-345.0,-30.0,78.0,-172.2,-16.2,0,0,6660,0,134,0,
3.7033,135.3,134.4,-362.4,-20.1,83.4,-168.6,-7.8,0,0,6666,0,135,0,
3.7067,131.1,75.6,-391.8,-90.6,63.0,-177.9,-30.6,0,0,6672,0,136,0,
3.7100,135.0,59.4,-395.7,-114.3,52.5,-192.0,-56.4,0,0,6678,0,137,0,
3.7133,134.7,84.0,-384.3,-89.1,68.1,-174.0,-37.2,0,0,6684,0,138,0,
3.7167,124.5,134.7,-352.8,-31.2,79.8,-174.0,-29.7,0,0,6690,0,139,0,
3.7200,125.1,136.5,-362.1,-20.4,76.5,-178.8,-20.1,0,0,6696,0,140,0,
3.7233,139.8,88.8,-389.7,-87.0,56.7,-186.3,-54.6,0,0,6702,0,141,0,
3.7267,131.4,53.1,-400.8,-112.5,60.6,-171.6,-51.6,0,0,6708,0,142,0,
3.7300,140.1,87.0,-379.5,-82.2,62.4,-183.3,-38.4,0,0,6714,0,143,0,
3.7333,133.2,131.4,-349.8,-28.8,78.3,-178.5,-19.2,0,0,6720,0,144,0,
3.7367,130.5,139.8,-352.5,-15.6,76.5,-174.6,-13.8,0,0,6726,0,145,0,
3.7400,140.1,73.2,-387.6,-84.0,54.9,-188.1,-53.4,0,0,6732,0,146,0,
3.7433,133.8,71.7,-390.9,-116.7,51.6,-180.3,-63.0,0,0,6738,0,147,0,
3.7467,123.3,69.9,-386.1,-90.0,71.7,-161.4,-41.1,0,0,6744,0,148,0,
3.7500,129.0,139.8,-354.0,-41.7,70.2,-180.0,-16.2,0,0,6750,0,149,0,
3.7533,124.8,133.5,-355.5,-26.7,72.3,-182.7,-24.9,0,0,6756,0,150,0,
3.7567,125.7,77.7,-394.2,-90.6,52.2,-192.3,-51.6,0,0,6762,0,151,0,
3.7600,140.7,61.2,-403.5,-116.7,49.8,-195.9,-65.1,0,0,6768,0,152,0,
3.7633,143.1,76.5,-385.8,-88.2,59.7,-184.2,-47.7,0,0,6774,0,153,0,
3.7667,120.9,138.3,-345.0,-30.0,78.3,-171.9,-15.9,0,0,6780,0,154,0,
3.7700,125.7,130.5,-366.0,-26.1,71.7,-182.4,-24.6,0,0,6786,0,155,0,
3.7733,121.8,87.3,-386.1,-84.9,54.3,-187.8,-52.2,0,0,6792,0,156,0,
3.7767,132.3,72.6,-393.3,-117.0,48.6,-196.8,-64.8,0,0,6798,0,157,0,
3.7800,118.5,62.7,-388.8,-90.6,64.2,-175.8,-56.4,0,0,6804,0,158,0,
3.7833,100.5,113.4,-362.7,-39.3,80.1,-171.9,-25.2,0,0,6810,0,159,0,
3.7867,110.4,130.8,-353.7,-19.2,66.9,-202.2,-34.2,0,0,6816,0,160,0,
3.7900,134.7,71.4,-396.6,-96.9,56.1,-188.4,-64.2,0,0,6822,0,161,0,
3.7933,135.9,52.8,-399.0,-118.8,45.9,-202.8,-64.8,0,0,6828,0,162,0,
3.7967,137.1,90.9,-385.5,-93.6,62.7,-183.9,-50.7,0,0,6834,0,163,0,
3.8000,117.9,137.1,-354.6,-36.6,70.2,-191.4,-39.3,0,0,6840,0,164,0,
3.8033,101.1,124.5,-356.7,-21.0,69.6,-184.5,-36.0,0,0,6846,0,165,0,
3.8067,129.6,60.3,-394.5,-92.7,40.2,-210.9,-74.1,0,0,6852,0,166,0,
3.8100,110.7,70.8,-391.2,-120.6,45.0,-192.6,-68.7,0,0,6858,0,167,0,
3.8133,114.3,79.5,-391.8,-93.9,55.8,-191.1,-60.6,0,0,6864,0,168,0,
3.8167,102.3,145.5,-349.8,-36.6,78.6,-179.4,-30.3,0,0,6870,0,169,0,
3.8200,119.7,146.7,-354.9,-20.1,75.3,-188.7,-30.0,0,0,6876,0,170,0,
3.8233,143.4,91.2,-377.1,-87.9,53.1,-196.2,-57.0,0,0,6882,0,171,0,
3.8267,150.6,55.8,-395.7,-119.4,55.2,-175.5,-61.8,0,0,6888,0,172,0,
3.8300,130.8,88.8,-381.3,-90.9,69.9,-169.8,-47.4,0,0,6894,0,173,0,
3.8333,131.1,132.0,-352.8,-33.6,63.0,-200.4,-30.0,0,0,6900,0,174,0,
3.8367,125.4,139.5,-359.4,-22.8,72.0,-183.9,-19.8,0,0,6906,0,175,0,
3.8400,139.5,78.3,-399.6,-99.3,49.8,-191.7,-45.9,0,0,6912,0,176,0,
3.8433,143.4,63.9,-402.0,-122.1,49.2,-193.5,-66.9,0,0,6918,0,177,0,
3.8467,130.2,90.0,-379.2,-85.5,65.4,-176.7,-36.9,0,0,6924,0,178,0,
3.8500,124.5,131.7,-359.4,-40.5,73.8,-186.6,-32.7,0,0,6930,0,179,0,
3.8533,116.4,134.1,-363.0,-26.7,74.4,-183.0,-22.5,0,0,6936,0,180,0,
3.8567,138.6,77.7,-399.3,-92.1,52.5,-195.0,-56.7,0,0,6942,0,181,0,
3.8600,127.8,59.4,-399.0,-120.9,50.1,-193.2,-64.5,0,0,6948,0,182,0,
3.8633,134.1,72.9,-387.9,-95.1,57.3,-193.5,-60.6,0,0,6954,0,183,0,
3.8667,129.6,127.8,-359.4,-42.6,75.3,-185.7,-29.4,0,0,6960,0,184,0,
3.8700,125.1,138.0,-360.0,-28.2,68.7,-189.3,-25.8,0,0,6966,0,185,0,
3.8733,139.2,74.7,-399.9,-100.5,49.8,-197.4,-54.0,0,0,6972,0,186,0,
3.8767,133.8,64.8,-400.8,-118.8,48.9,-192.9,-67.2,0,0,6978,0,187,0,
3.8800,126.6,78.0,-389.7,-97.5,61.2,-187.8,-52.8,0,0,6984,0,188,0,
3.8833,117.6,130.8,-359.1,-44.1,74.7,-192.9,-27.3,0,0,6990,0,189,0,
3.8867,125.4,139.2,-366.3,-33.0,77.7,-180.9,-27.9,0,0,6996,0,190,0,
3.8900,124.5,76.8,-403.2,-101.7,53.4,-196.2,-61.5,0,0,7002,0,191,0,
3.8933,128.1,51.9,-410.4,-125.1,49.2,-201.0,-78.0,0,0,7008,0,192,0,
3.8967,122.7,88.8,-384.9,-93.9,57.9,-197.1,-61.8,0,0,7014,0,193,0,
3.9000,118.8,117.6,-374.1,-49.2,72.9,-187.2,-30.6,0,0,7020,0,194,0,
3.9033,119.4,124.8,-368.1,-33.9,70.5,-189.0,-35.1,0,0,7026,0,195,0,
3.9067,141.3,77.4,-398.1,-92.4,47.4,-211.5,-60.6,0,0,7032,0,196,0,
3.9100,137.7,63.9,-404.1,-120.3,45.3,-202.8,-69.3,0,0,7038,0,197,0,
3.9133,143.7,94.5,-388.8,-95.1,59.7,-190.5,-42.6,0,0,7044,0,198,0,
3.9167,129.9,133.2,-359.7,-40.8,72.0,-186.6,-21.3,0,0,7050,0,199,0,
3.9200,130.8,140.7,-360.9,-27.9,70.2,-187.2,-19.2,0,0,7056,0,200,0,
3.9233,140.1,87.3,-393.3,-96.3,54.6,-187.5,-39.9,0,0,7062,0,201,0,
3.9267,155.1,69.0,-400.2,-123.0,51.6,-194.4,-54.3,0,0,7068,0,202,0,
3.9300,144.0,99.3,-382.2,-92.4,60.0,-185.7,-36.3,0,0,7074,0,203,0,
3.9333,139.2,144.9,-355.2,-36.6,76.2,-180.0,-10.2,0,0,7080,0,204,0,
3.9367,127.2,159.3,-350.7,-21.6,74.7,-186.0,-13.5,0,0,7086,0,205,0,
3.9400,137.7,76.5,-402.0,-94.8,52.5,-200.4,-55.2,0,0,7092,0,206,0,
3.9433,139.2,58.2,-398.4,-114.3,50.7,-197.4,-67.2,0,0,7098,0,207,0,
3.9467,146.7,87.3,-383.7,-88.2,64.5,-177.9,-38.1,0,0,7104,0,208,0,
3.9500,141.6,147.0,-348.3,-34.5,78.0,-171.9,2.7,0,0,7110,0,209,0,
3.9533,141.3,140.1,-358.5,-25.5,77.1,-182.1,-9.0,0,0,7116,0,210,0,
3.9567,146.4,86.1,-389.7,-94.8,52.8,-196.8,-43.5,0,0,7122,0,211,0,
3.9600,136.2,53.1,-405.3,-126.9,50.4,-193.5,-51.6,0,0,7128,0,212,0,
3.9633,130.5,90.6,-381.6,-96.6,63.3,-183.9,-31.8,0,0,7134,0,213,0,
3.9667,120.6,136.5,-358.5,-37.8,74.4,-180.9,-9.9,0,0,7140,0,214,0,
3.9700,123.9,144.9,-360.3,-23.7,78.9,-177.3,-0.6,0,0,7146,0,215,0,
3.9733,141.0,85.8,-398.4,-96.9,54.0,-190.8,-38.4,0,0,7152,0,216,0,
3.9767,140.4,72.6,-394.2,-118.5,53.4,-186.3,-41.1,0,0,7158,0,217,0,
3.9800,135.6,96.9,-379.2,-91.2,64.5,-181.2,-27.0,0,0,7164,0,218,0,
3.9833,121.2,140.4,-354.6,-35.4,78.9,-172.5,-9.9,0,0,7170,0,219,0,
3.9867,121.8,142.5,-357.9,-23.1,75.3,-185.4,-3.3,0,0,7176,0,220,0,
3.9900,130.8,81.0,-400.8,-98.7,56.7,-185.4,-35.1,0,0,7182,0,221,0,
3.9933,130.2,74.1,-399.6,-121.8,53.1,-188.7,-41.7,0,0,7188,0,222,0,
3.9967,130.2,90.0,-382.8,-94.2,66.6,-174.3,-26.7,0,0,7194,0,223,0,
4.0000,127.8,133.5,-361.8,-42.0,73.5,-182.4,-9.0,0,0,7200,0,224,0,
4.0033,125.1,146.1,-364.5,-28.8,72.3,-181.8,1.5,0,0,7206,0,225,0,
4.0067,140.7,77.1,-409.2,-101.4,52.2,-191.7,-36.3,0,0,7212,0,226,0,
4.0100,139.8,66.3,-404.4,-124.2,50.1,-189.0,-43.2,0,0,7218,0,227,0,
4.0133,132.6,92.4,-387.0,-97.5,65.1,-179.1,-28.2,0,0,7224,0,228,0,
4.0167,123.0,141.6,-359.7,-42.0,78.0,-175.8,-7.8,0,0,7230,0,229,0,
4.0200,126.6,137.1,-363.0,-30.0,77.4,-176.1,-7.8,0,0,7236,0,230,0,
4.0233,137.1,80.4,-400.5,-98.7,55.2,-186.6,-42.0,0,0,7242,0,231,0,
4.0267,136.5,62.7,-404.4,-123.6,53.1,-186.3,-51.3,0,0,7248,0,232,0,
4.0300,132.0,93.3,-386.7,-95.4,66.9,-180.0,-33.3,0,0,7254,0,233,0,
4.0333,120.3,135.0,-365.4,-47.1,75.9,-175.8,-9.9,0,0,7260,0,234,0,
4.0367,113.1,134.4,-369.6,-31.8,76.8,-175.2,-8.1,0,0,7266,0,235,0,
4.0400,126.3,63.3,-409.5,-107.7,47.4,-200.7,-43.2,0,0,7272,0,236,0,
4.0433,129.9,43.8,-412.2,-131.7,47.4,-193.5,-55.5,0,0,7278,0,237,0,
4.0467,124.5,71.1,-395.1,-104.7,56.4,-192.3,-44.4,0,0,7284,0,238,0,
4.0500,106.8,109.2,-374.1,-52.8,69.0,-187.2,-24.3,0,0,7290,0,239,0,
4.0533,99.6,114.9,-380.7,-40.5,67.2,-194.7,-27.0,0,0,7296,0,240,0,
4.0567,122.7,60.6,-414.3,-110.1,46.5,-199.8,-55.2,0,0,7302,0,241,0,
4.0600,138.9,54.3,-414.3,-129.9,48.0,-194.1,-58.5,0,0,7308,0,242,0,
4.0633,131.1,80.1,-396.3,-99.3,58.5,-183.9,-45.3,0,0,7314,0,243,0,
4.0667,120.9,131.4,-362.1,-43.2,78.0,-176.1,-17.4,0,0,7320,0,244,0,
4.0700,120.9,137.7,-364.2,-30.6,72.3,-182.7,-17.4,0,0,7326,0,245,0,
4.0733,140.1,77.7,-401.1,-98.7,52.2,-195.0,-50.1,0,0,7332,0,246,0,
4.0767,145.2,60.3,-410.1,-124.2,50.1,-184.5,-53.1,0,0,7338,0,247,0,
4.0800,139.5,86.7,-387.6,-97.2,59.4,-178.2,-35.4,0,0,7344,0,248,0,
4.0833,132.3,128.4,-364.5,-37.5,79.5,-166.5,-10.5,0,0,7350,0,249,0,
4.0867,125.4,140.4,-361.5,-22.5,79.8,-175.2,-12.6,0,0,7356,0,250,0,
4.0900,153.0,81.6,-397.8,-92.7,55.2,-181.5,-44.7,0,0,7362,0,251,0,
4.0933,151.8,65.7,-402.0,-119.7,51.3,-181.5,-51.9,0,0,7368,0,252,0,
4.0967,144.6,87.0,-387.0,-88.2,62.1,-183.3,-41.4,0,0,7374,0,253,0,
4.1000,127.8,133.2,-358.8,-36.3,71.7,-178.5,-19.2,0,0,7380,0,254,0,
4.1033,129.6,134.1,-360.9,-20.7,72.0,-182.4,-24.0,0,0,7386,0,255,0,
4.1067,135.9,73.2,-400.5,-93.0,50.4,-186.3,-60.0,0,0,7392,0,0,0,
4.1100,142.2,52.8,-405.0,-117.9,40.2,-197.1,-66.0,0,0,7398,0,1,0,
4.1133,137.7,83.4,-384.6,-85.2,56.4,-183.0,-43.8,0,0,7404,0,2,0,
4.1167,127.8,132.3,-357.6,-31.8,73.8,-175.8,-20.4,0,0,7410,0,3,0,
4.1200,121.2,133.2,-365.4,-24.9,67.8,-183.9,-21.6,0,0,7416,0,4,0,
4.1233,138.9,71.7,-402.3,-97.8,50.4,-188.7,-47.1,0,0,7422,0,5,0,
4.1267,139.2,56.7,-407.4,-123.0,45.6,-189.9,-62.4,0,0,7428,0,6,0,
4.1300,126.3,79.8,-389.1,-93.6,55.8,-184.5,-48.6,0,0,7434,0,7,0,
4.1333,117.0,125.4,-360.0,-37.5,70.8,-179.7,-22.5,0,0,7440,0,8,0,
4.1367,115.5,132.6,-366.9,-19.8,69.0,-187.2,-21.6,0,0,7446,0,9,0,
4.1400,124.8,67.8,-403.8,-93.3,42.6,-192.6,-54.6,0,0,7452,0,10,0,
4.1433,133.2,54.9,-407.4,-118.2,45.6,-184.5,-60.6,0,0,7458,0,11,0,
4.1467,121.8,84.9,-390.3,-91.5,57.9,-179.1,-43.2,0,0,7464,0,12,0,
4.1500,111.9,123.3,-367.2,-39.0,66.3,-183.3,-26.4,0,0,7470,0,13,0,
4.1533,111.9,135.0,-369.9,-30.6,67.8,-183.9,-23.4,0,0,7476,0,14,0,
4.1567,127.8,68.4,-411.3,-103.2,47.4,-192.6,-54.6,0,0,7482,0,15,0,
4.1600,131.1,52.5,-416.7,-127.2,44.1,-190.2,-65.1,0,0,7488,0,16,0,
4.1633,128.1,73.8,-394.5,-100.2,53.4,-183.0,-45.0,0,0,7494,0,17,0,
4.1667,117.3,120.3,-368.1,-45.6,67.5,-179.1,-23.7,0,0,7500,0,18,0,
4.1700,117.9,125.7,-371.1,-28.5,68.4,-180.9,-17.7,0,0,7506,0,19,0,
4.1733,127.5,67.5,-408.0,-103.2,46.2,-191.1,-51.6,0,0,7512,0,20,0,
4.1767,134.4,50.7,-413.4,-121.2,41.7,-189.6,-63.9,0,0,7518,0,21,0,
4.1800,127.8,80.4,-392.4,-90.9,53.7,-183.6,-49.5,0,0,7524,0,22,0,
4.1833,125.1,131.7,-361.5,-33.9,69.6,-177.0,-24.6,0,0,7530,0,23,0,
4.1867,124.8,141.3,-365.1,-17.7,70.5,-176.7,-15.0,0,0,7536,0,24,0,
4.1900,136.5,67.8,-410.7,-99.0,50.1,-191.1,-55.8,0,0,7542,0,25,0,
4.1933,135.0,39.3,-422.7,-129.9,40.5,-192.3,-70.8,0,0,7548,0,26,0,
4.1967,123.9,75.9,-396.0,-92.1,52.5,-187.2,-56.4,0,0,7554,0,27,0,
4.2000,111.9,115.5,-372.6,-32.7,68.4,-184.2,-33.3,0,0,7560,0,28,0,
4.2033,111.0,120.3,-376.2,-18.0,65.1,-191.7,-36.0,0,0,7566,0,29,0,
4.2067,131.7,57.0,-411.9,-91.5,45.0,-197.4,-64.2,0,0,7572,0,30,0,
4.2100,134.7,35.4,-420.6,-125.7,39.0,-197.4,-80.7,0,0,7578,0,31,0,
4.2133,117.0,59.7,-407.4,-96.6,49.2,-192.9,-68.7,0,0,7584,0,32,0,
4.2167,109.2,117.0,-374.4,-33.9,67.2,-186.9,-41.7,0,0,7590,0,33,0,
4.2200,113.4,129.0,-377.7,-18.6,67.5,-191.4,-33.3,0,0,7596,0,34,0,
4.2233,125.7,56.7,-420.6,-102.3,44.7,-195.0,-71.1,0,0,7602,0,35,0,
4.2267,126.9,24.9,-435.0,-136.5,40.5,-198.9,-81.9,0,0,7608,0,36,0,
4.2300,118.2,61.5,-411.3,-102.9,51.9,-193.5,-68.4,0,0,7614,0,37,0,
4.2333,107.4,113.4,-378.3,-42.3,68.1,-188.1,-41.1,0,0,7620,0,38,0,
4.2367,109.5,129.3,-377.7,-21.6,68.7,-189.9,-34.8,0,0,7626,0,39,0,
4.2400,124.8,54.3,-421.2,-102.0,45.6,-198.3,-73.5,0,0,7632,0,40,0,
4.2433,121.8,31.2,-429.3,-132.3,44.7,-199.5,-87.3,0,0,7638,0,41,0,
4.2467,109.2,61.5,-411.3,-101.4,55.2,-191.1,-69.0,0,0,7644,0,42,0,
4.2500,109.8,117.9,-377.1,-36.9,72.3,-182.1,-39.9,0,0,7650,0,43,0,
4.2533,120.9,124.5,-377.4,-17.1,73.2,-185.1,-29.4,0,0,7656,0,44,0,
4.2567,130.5,54.0,-424.8,-102.9,49.8,-193.5,-63.6,0,0,7662,0,45,0,
4.2600,128.1,30.6,-429.9,-132.6,41.4,-192.9,-79.5,0,0,7668,0,46,0,
4.2633,129.3,69.0,-404.1,-98.1,54.6,-186.3,-58.5,0,0,7674,0,47,0,
4.2667,115.5,120.6,-376.2,-32.4,70.5,-180.3,-33.9,0,0,7680,0,48,0,
4.2700,115.8,131.1,-379.8,-14.1,70.5,-184.8,-28.2,0,0,7686,0,49,0,
4.2733,131.1,57.9,-420.3,-95.1,45.6,-195.3,-66.3,0,0,7692,0,50,0,
4.2767,137.7,39.6,-426.3,-123.9,43.8,-193.5,-75.6,0,0,7698,0,51,0,
4.2800,123.6,71.1,-400.5,-92.1,50.1,-193.2,-62.7,0,0,7704,0,52,0,
4.2833,117.0,122.1,-375.9,-30.0,69.6,-185.4,-38.4,0,0,7710,0,53,0,
4.2867,112.8,120.9,-378.3,-15.0,69.6,-188.1,-33.0,0,0,7716,0,54,0,
4.2900,122.1,49.8,-426.3,-99.9,42.6,-200.7,-70.5,0,0,7722,0,55,0,
4.2933,131.4,29.7,-428.1,-129.6,43.8,-196.5,-78.0,0,0,7728,0,56,0,
4.2967,122.7,66.6,-402.0,-90.6,54.6,-187.8,-55.2,0,0,7734,0,57,0,
4.3000,112.2,116.1,-368.4,-31.8,72.9,-180.3,-32.1,0,0,7740,0,58,0,
4.3033,113.7,128.1,-372.0,-14.7,71.1,-185.4,-24.9,0,0,7746,0,59,0,
4.3067,138.9,61.2,-412.2,-99.0,49.2,-190.2,-60.9,0,0,7752,0,60,0,
4.3100,140.1,39.3,-417.9,-131.7,44.7,-188.4,-69.0,0,0,7758,0,61,0,
4.3133,126.9,73.5,-397.5,-96.3,58.2,-178.5,-51.6,0,0,7764,0,62,0,
4.3167,122.4,126.9,-363.0,-32.1,72.6,-174.0,-20.4,0,0,7770,0,63,0,
4.3200,116.4,128.1,-375.9,-21.6,68.4,-183.6,-24.6,0,0,7776,0,64,0,
4.3233,140.7,60.9,-414.9,-100.8,48.6,-188.4,-56.7,0,0,7782,0,65,0,
4.3267,141.9,45.3,-418.2,-122.7,44.4,-185.4,-66.0,0,0,7788,0,66,0,
4.3300,135.6,76.2,-396.0,-88.2,57.3,-180.6,-49.2,0,0,7794,0,67,0,
4.3333,127.8,126.0,-363.0,-30.9,72.9,-177.0,-22.2,0,0,7800,0,68,0,
4.3367,125.7,132.0,-371.1,-18.3,72.0,-179.1,-22.8,0,0,7806,0,69,0,
4.3400,135.0,70.2,-406.2,-92.1,45.6,-193.2,-64.2,0,0,7812,0,70,0,
4.3433,133.2,50.4,-412.5,-116.7,44.4,-191.4,-70.5,0,0,7818,0,71,0,
4.3467,132.9,81.0,-394.5,-86.1,55.5,-184.5,-56.1,0,0,7824,0,72,0,
4.3500,128.4,129.6,-366.6,-33.3,69.9,-177.6,-24.6,0,0,7830,0,73,0,
4.3533,129.6,137.7,-365.7,-18.6,73.2,-176.7,-18.0,0,0,7836,0,74,0,
4.3567,139.2,77.4,-400.2,-84.6,50.7,-187.8,-53.7,0,0,7842,0,75,0,
4.3600,142.2,55.2,-410.4,-112.2,44.7,-186.3,-65.1,0,0,7848,0,76,0,
4.3633,130.2,85.2,-391.2,-82.8,56.7,-182.4,-52.2,0,0,7854,0,77,0,
4.3667,119.7,116.4,-371.7,-35.7,66.9,-176.4,-34.2,0,0,7860,0,78,0,
4.3700,116.7,128.1,-371.4,-20.1,64.5,-178.8,-33.0,0,0,7866,0,79,0,
4.3733,127.5,69.6,-410.4,-87.6,45.0,-191.1,-66.3,0,0,7872,0,80,0,
4.3767,131.7,55.8,-412.8,-109.2,43.2,-186.6,-73.2,0,0,7878,0,81,0,
4.3800,123.9,74.1,-397.8,-87.6,53.4,-179.7,-59.4,0,0,7884,0,82,0,
4.3833,119.1,111.6,-372.3,-36.6,67.8,-172.8,-39.0,0,0,7890,0,83,0,
4.3867,115.8,124.2,-367.8,-20.1,70.8,-177.0,-31.8,0,0,7896,0,84,0,
4.3900,126.0,66.9,-404.4,-83.7,53.1,-181.8,-65.1,0,0,7902,0,85,0,
4.3933,136.5,56.4,-408.3,-108.0,43.5,-180.6,-68.4,0,0,7908,0,86,0,
4.3967,125.1,81.3,-395.7,-82.5,57.9,-173.1,-54.6,0,0,7914,0,87,0,
4.4000,133.8,117.3,-366.9,-33.6,70.5,-169.2,-37.8,0,0,7920,0,88,0,
4.4033,123.9,123.3,-367.5,-21.0,69.0,-175.2,-34.8,0,0,7926,0,89,0,
4.4067,133.2,68.1,-402.6,-84.0,50.1,-186.0,-61.5,0,0,7932,0,90,0,
4.4100,135.3,52.5,-410.1,-113.1,45.6,-186.0,-69.9,0,0,7938,0,91,0,
4.4133,131.7,78.3,-397.8,-84.6,55.5,-181.2,-55.2,0,0,7944,0,92,0,
4.4167,118.5,116.7,-375.0,-39.3,68.4,-175.8,-33.9,0,0,7950,0,93,0,
4.4200,122.1,121.8,-376.5,-25.2,70.5,-175.8,-26.4,0,0,7956,0,94,0,
4.4233,136.5,64.5,-409.2,-93.6,48.3,-186.3,-58.2,0,0,7962,0,95,0,
4.4267,137.7,50.7,-412.8,-112.2,44.1,-186.3,-65.1,0,0,7968,0,96,0,
4.4300,134.4,75.9,-396.6,-85.8,52.5,-179.4,-51.3,0,0,7974,0,97,0,
4.4333,126.9,117.0,-371.4,-38.1,69.3,-172.8,-30.6,0,0,7980,0,98,0,
4.4367,129.6,123.6,-375.3,-30.0,69.9,-175.5,-24.6,0,0,7986,0,99,0,
4.4400,144.0,66.6,-407.4,-93.0,47.1,-183.0,-57.3,0,0,7992,0,100,0,
4.4433,126.9,47.1,-419.4,-118.2,44.4,-185.7,-64.8,0,0,7998,0,101,0,
4.4467,132.3,75.3,-397.2,-86.1,54.9,-184.2,-53.1,0,0,8004,0,102,0,
4.4500,128.7,112.2,-375.6,-39.0,67.2,-175.8,-29.7,0,0,8010,0,103,0,
4.4533,126.6,126.3,-373.8,-23.4,69.0,-177.6,-27.0,0,0,8016,0,104,0,
4.4567,139.5,66.6,-406.8,-84.0,49.5,-186.3,-49.5,0,0,8022,0,105,0,
4.4600,138.9,55.5,-408.0,-104.4,49.5,-184.5,-56.1,0,0,8028,0,106,0,
4.4633,139.8,84.9,-392.4,-78.6,58.8,-177.6,-43.2,0,0,8034,0,107,0,
4.4667,130.5,122.7,-368.4,-36.0,74.1,-173.4,-21.6,0,0,8040,0,108,0,
4.4700,125.4,130.5,-370.2,-23.7,70.2,-174.6,-14.4,0,0,8046,0,109,0,
4.4733,136.8,75.6,-400.2,-84.9,51.6,-185.7,-44.1,0,0,8052,0,110,0,
4.4767,145.8,66.0,-406.2,-107.1,47.7,-182.4,-45.3,0,0,8058,0,111,0,
4.4800,138.9,91.8,-390.0,-83.4,58.8,-180.3,-35.7,0,0,8064,0,112,0,
4.4833,135.6,134.1,-364.5,-35.4,74.1,-172.2,-14.7,0,0,8070,0,113,0,
4.4867,129.3,136.2,-366.3,-19.2,75.6,-173.4,-8.7,0,0,8076,0,114,0,
4.4900,141.9,77.7,-403.8,-85.2,51.0,-186.0,-43.5,0,0,8082,0,115,0,
4.4933,137.7,63.6,-406.5,-110.4,46.8,-186.3,-54.3,0,0,8088,0,116,0,
4.4967,135.9,91.5,-393.6,-84.9,56.1,-180.6,-42.6,0,0,8094,0,117,0,
4.5000,127.5,128.4,-370.5,-42.3,68.4,-176.1,-27.6,0,0,8100,0,118,0,
4.5033,128.4,137.4,-371.1,-24.9,71.1,-177.9,-13.8,0,0,8106,0,119,0,
4.5067,133.5,75.6,-403.8,-87.0,51.6,-185.7,-47.4,0,0,8112,0,120,0,
4.5100,140.7,54.0,-411.3,-112.2,52.2,-183.9,-55.5,0,0,8118,0,121,0,
4.5133,136.5,84.0,-389.4,-85.2,57.9,-179.7,-40.5,0,0,8124,0,122,0,
4.5167,126.6,121.5,-369.6,-39.6,69.0,-174.9,-21.3,0,0,8130,0,123,0,
4.5200,118.8,131.4,-375.6,-27.0,68.7,-183.0,-23.1,0,0,8136,0,124,0,
4.5233,132.0,74.1,-405.6,-89.4,48.6,-192.3,-51.9,0,0,8142,0,125,0,
4.5267,133.2,60.3,-407.7,-111.0,42.3,-193.2,-62.1,0,0,8148,0,126,0,
4.5300,134.4,81.9,-391.5,-90.3,49.5,-188.1,-50.1,0,0,8154,0,127,0,
4.5333,120.3,118.8,-369.6,-42.0,64.8,-183.6,-35.7,0,0,8160,0,128,0,
4.5367,121.5,137.4,-364.5,-22.2,72.3,-178.8,-27.9,0,0,8166,0,129,0,
4.5400,130.5,81.3,-400.8,-87.3,50.1,-188.7,-59.7,0,0,8172,0,130,0,
4.5433,136.8,64.2,-406.5,-107.7,50.4,-185.7,-64.2,0,0,8178,0,131,0,
4.5467,129.6,83.1,-393.3,-86.4,58.8,-182.7,-51.3,0,0,8184,0,132,0,
4.5500,122.1,124.8,-367.2,-36.3,71.7,-176.7,-26.1,0,0,8190,0,133,0,
4.5533,118.5,134.1,-366.6,-17.4,70.2,-181.2,-26.4,0,0,8196,0,134,0,
4.5567,132.6,82.5,-402.0,-81.3,54.9,-187.8,-49.2,0,0,8202,0,135,0,
4.5600,134.7,70.5,-404.7,-105.6,49.8,-186.9,-61.2,0,0,8208,0,136,0,
4.5633,123.6,86.4,-393.3,-86.4,55.5,-181.2,-51.6,0,0,8214,0,137,0,
4.5667,121.5,129.0,-368.4,-37.8,73.5,-173.7,-25.2,0,0,8220,0,138,0,
4.5700,118.5,139.2,-369.0,-24.6,71.7,-177.9,-25.8,0,0,8226,0,139,0,
4.5733,144.6,86.4,-400.8,-90.3,52.8,-184.8,-45.0,0,0,8232,0,140,0,
4.5767,141.0,64.2,-408.6,-118.8,47.1,-189.9,-62.1,0,0,8238,0,141,0,
4.5800,124.5,81.9,-397.8,-96.3,61.5,-180.3,-51.3,0,0,8244,0,142,0,
4.5833,109.5,118.2,-378.3,-48.6,71.1,-175.8,-33.3,0,0,8250,0,143,0,
4.5867,120.9,137.4,-372.0,-26.7,74.7,-174.3,-25.5,0,0,8256,0,144,0,
4.5900,132.9,80.4,-404.7,-88.2,55.5,-181.2,-53.1,0,0,8262,0,145,0,
4.5933,139.2,59.7,-410.4,-114.3,52.5,-180.9,-62.7,0,0,8268,0,146,0,
4.5967,122.4,81.3,-393.0,-88.5,60.9,-178.2,-54.0,0,0,8274,0,147,0,
4.6000,120.6,126.9,-367.2,-39.9,75.9,-171.6,-28.2,0,0,8280,0,148,0,
4.6033,120.0,135.9,-367.8,-23.4,76.2,-173.1,-25.5,0,0,8286,0,149,0,
4.6067,125.7,76.8,-404.7,-88.2,55.5,-181.8,-55.5,0,0,8292,0,150,0,
4.6100,128.7,52.2,-408.0,-111.3,48.9,-180.6,-61.8,0,0,8298,0,151,0,
4.6133,134.1,85.2,-385.5,-91.2,58.5,-178.5,-52.2,0,0,8304,0,152,0,
4.6167,129.0,132.0,-359.4,-40.2,67.5,-176.7,-26.1,0,0,8310,0,153,0,
4.6200,127.5,136.2,-362.4,-28.2,69.0,-180.9,-29.7,0,0,8316,0,154,0,
4.6233,141.0,79.8,-399.3,-89.7,53.1,-186.0,-51.3,0,0,8322,0,155,0,
4.6267,136.8,58.2,-404.7,-114.3,47.4,-190.5,-71.1,0,0,8328,0,156,0,
4.6300,123.0,81.0,-389.7,-92.1,55.5,-187.8,-63.9,0,0,8334,0,157,0,
4.6333,118.5,111.6,-367.8,-47.1,65.1,-185.4,-44.1,0,0,8340,0,158,0,
4.6367,120.3,127.2,-367.8,-27.0,67.5,-183.0,-33.6,0,0,8346,0,159,0,
4.6400,129.9,71.4,-400.8,-89.4,52.8,-188.1,-59.7,0,0,8352,0,160,0,
4.6433,132.3,59.1,-407.4,-115.8,48.3,-190.5,-70.2,0,0,8358,0,161,0,
4.6467,121.2,76.2,-394.5,-91.5,55.8,-186.3,-58.2,0,0,8364,0,162,0,
4.6500,109.2,111.9,-375.9,-50.7,66.6,-182.4,-39.9,0,0,8370,0,163,0,
4.6533,115.8,125.4,-372.3,-30.3,70.8,-183.3,-28.5,0,0,8376,0,164,0,
4.6567,127.5,76.5,-408.0,-89.1,54.3,-186.3,-58.5,0,0,8382,0,165,0,
4.6600,131.7,59.1,-411.0,-118.5,48.6,-189.0,-70.2,0,0,8388,0,166,0,
4.6633,126.0,84.6,-396.6,-96.0,58.8,-183.9,-53.1,0,0,8394,0,167,0,
4.6667,114.6,113.7,-377.7,-52.2,71.7,-175.2,-32.7,0,0,8400,0,168,0,
4.6700,118.8,131.7,-371.4,-32.7,75.6,-178.8,-21.9,0,0,8406,0,169,0,
4.6733,129.0,78.0,-406.5,-96.9,54.0,-186.6,-54.6,0,0,8412,0,170,0,
4.6767,134.7,59.7,-411.3,-119.1,49.8,-188.7,-60.6,0,0,8418,0,171,0,
4.6800,127.8,80.1,-397.5,-99.9,57.3,-182.4,-55.8,0,0,8424,0,172,0,
4.6833,121.5,123.3,-371.4,-46.2,69.6,-177.3,-31.2,0,0,8430,0,173,0,
4.6867,117.9,141.9,-363.0,-28.2,75.6,-169.8,-21.9,0,0,8436,0,174,0,
4.6900,133.8,84.0,-402.3,-90.3,55.8,-184.8,-52.5,0,0,8442,0,175,0,
4.6933,136.2,69.9,-407.1,-114.9,48.3,-189.6,-64.5,0,0,8448,0,176,0,
4.6967,119.1,90.9,-394.5,-92.7,61.5,-183.6,-54.3,0,0,8454,0,177,0,
4.7000,118.5,130.8,-368.1,-48.3,71.4,-179.4,-28.8,0,0,8460,0,178,0,
4.7033,134.4,141.9,-364.5,-28.8,73.2,-179.7,-18.3,0,0,8466,0,179,0,
4.7067,141.0,81.0,-401.1,-87.0,56.7,-186.3,-44.7,0,0,8472,0,180,0,
4.7100,139.2,59.4,-409.2,-112.5,47.1,-190.2,-59.7,0,0,8478,0,181,0,
4.7133,134.7,85.2,-387.9,-87.9,56.4,-185.4,-45.3,0,0,8484,0,182,0,
4.7167,127.8,136.8,-361.2,-35.7,69.0,-180.0,-24.3,0,0,8490,0,183,0,
4.7200,121.5,139.2,-365.4,-23.1,73.2,-175.5,-22.2,0,0,8496,0,184,0,
4.7233,144.0,79.2,-402.3,-87.0,50.1,-195.9,-56.1,0,0,8502,0,185,0,
4.7267,137.1,53.4,-411.6,-116.4,43.5,-203.1,-68.7,0,0,8508,0,186,0,
4.7300,128.4,83.4,-394.5,-93.0,54.0,-194.1,-55.2,0,0,8514,0,187,0,
4.7333,124.2,125.7,-370.2,-47.7,67.8,-184.5,-30.6,0,0,8520,0,188,0,
4.7367,118.8,132.3,-368.4,-32.1,70.8,-186.9,-26.1,0,0,8526,0,189,0,
4.7400,137.1,73.8,-405.0,-94.5,56.7,-190.8,-47.7,0,0,8532,0,190,0,
4.7433,138.6,61.5,-412.8,-119.1,54.9,-189.9,-59.7,0,0,8538,0,191,0,
4.7467,133.5,87.3,-395.4,-93.0,62.4,-182.1,-44.4,0,0,8544,0,192,0,
4.7500,123.9,132.3,-372.3,-46.2,74.1,-175.8,-23.4,0,0,8550,0,193,0,
4.7533,122.7,137.7,-373.5,-27.0,78.0,-175.5,-24.9,0,0,8556,0,194,0,
4.7567,130.2,80.7,-408.0,-93.9,56.7,-189.3,-55.5,0,0,8562,0,195,0,
4.7600,144.9,66.6,-411.3,-120.9,48.6,-198.3,-70.2,0,0,8568,0,196,0,
4.7633,130.2,91.2,-393.9,-99.3,59.1,-187.2,-56.4,0,0,8574,0,197,0,
4.7667,130.8,136.5,-365.7,-48.0,75.0,-178.2,-29.7,0,0,8580,0,198,0,
4.7700,130.5,147.9,-366.0,-26.7,73.5,-175.8,-25.8,0,0,8586,0,199,0,
4.7733,138.3,84.0,-405.9,-94.5,56.1,-189.3,-53.7,0,0,8592,0,200,0,
4.7767,138.6,66.6,-410.4,-121.2,50.7,-185.4,-58.5,0,0,8598,0,201,0,
4.7800,133.5,92.4,-391.2,-95.7,63.6,-177.6,-47.7,0,0,8604,0,202,0,
4.7833,127.5,132.3,-369.6,-45.3,76.5,-171.6,-24.3,0,0,8610,0,203,0,
4.7867,125.7,141.0,-369.9,-24.3,74.1,-175.2,-21.3,0,0,8616,0,204,0,
4.7900,145.5,84.0,-404.1,-92.7,53.7,-184.5,-50.1,0,0,8622,0,205,0,
4.7933,147.9,67.5,-410.7,-121.5,51.9,-180.9,-61.8,0,0,8628,0,206,0,
4.7967,140.7,87.3,-398.1,-96.9,61.2,-178.5,-52.2,0,0,8634,0,207,0,
4.8000,121.2,126.0,-375.6,-51.6,72.9,-172.8,-33.0,0,0,8640,0,208,0,
4.8033,124.5,135.0,-375.9,-28.5,72.6,-180.3,-25.5,0,0,8646,0,209,0,
4.8067,141.0,68.7,-415.2,-100.5,53.7,-186.3,-58.8,0,0,8652,0,210,0,
4.8100,143.1,42.3,-423.3,-131.4,47.4,-189.6,-75.0,0,0,8658,0,211,0,
4.8133,128.7,74.1,-403.8,-105.6,59.7,-184.8,-57.6,0,0,8664,0,212,0,
4.8167,117.6,117.6,-376.8,-53.4,78.0,-170.4,-40.5,0,0,8670,0,213,0,
4.8200,120.6,130.2,-379.8,-32.4,75.3,-178.5,-28.8,0,0,8676,0,214,0,
4.8233,136.8,63.9,-422.1,-108.6,51.3,-187.2,-56.1,0,0,8682,0,215,0,
4.8267,142.2,53.1,-424.8,-128.4,48.3,-185.7,-69.6,0,0,8688,0,216,0,
4.8300,135.6,71.4,-405.3,-105.3,60.9,-178.2,-54.9,0,0,8694,0,217,0,
4.8333,129.9,126.3,-375.0,-47.4,78.3,-171.0,-25.5,0,0,8700,0,218,0,
4.8367,132.9,123.6,-378.6,-27.0,76.8,-177.0,-21.9,0,0,8706,0,219,0,
4.8400,150.3,75.9,-407.4,-95.1,53.1,-183.9,-56.4,0,0,8712,0,220,0,
4.8433,153.3,51.3,-417.9,-119.7,52.8,-175.5,-60.0,0,0,8718,0,221,0,
4.8467,149.1,83.7,-396.3,-92.7,62.4,-174.3,-48.0,0,0,8724,0,222,0,
4.8500,136.8,122.4,-373.8,-42.6,78.0,-166.8,-16.8,0,0,8730,0,223,0,
4.8533,128.1,140.4,-369.6,-22.2,79.8,-172.2,-22.5,0,0,8736,0,224,0,
4.8567,146.1,73.5,-407.7,-91.2,56.7,-180.6,-55.2,0,0,8742,0,225,0,
4.8600,147.9,52.2,-420.6,-127.5,51.0,-183.3,-66.9,0,0,8748,0,226,0,
4.8633,129.3,72.3,-401.7,-97.8,58.2,-178.5,-54.6,0,0,8754,0,227,0,
4.8667,133.5,127.2,-370.2,-41.4,79.2,-166.5,-30.0,0,0,8760,0,228,0,
4.8700,128.4,138.3,-368.4,-26.1,74.1,-177.6,-22.2,0,0,8766,0,229,0,
4.8733,150.3,68.4,-408.9,-94.2,55.8,-187.5,-55.8,0,0,8772,0,230,0,
4.8767,146.7,46.2,-414.6,-122.7,49.5,-186.3,-69.3,0,0,8778,0,231,0,
4.8800,139.2,71.1,-399.3,-91.8,61.5,-174.9,-60.3,0,0,8784,0,232,0,
4.8833,123.9,112.2,-379.8,-50.4,68.7,-179.7,-36.9,0,0,8790,0,233,0,
4.8867,118.8,120.6,-381.0,-28.5,69.9,-185.7,-26.1,0,0,8796,0,234,0,
4.8900,132.9,62.7,-418.8,-100.2,50.7,-191.1,-58.2,0,0,8802,0,235,0,
4.8933,126.9,53.1,-417.6,-124.2,44.1,-190.8,-81.0,0,0,8808,0,236,0,
4.8967,131.7,81.3,-397.5,-90.6,58.8,-183.9,-60.3,0,0,8814,0,237,0,
4.9000,128.1,122.1,-373.5,-42.6,74.1,-173.7,-30.0,0,0,8820,0,238,0,
4.9033,130.2,133.8,-375.3,-23.7,73.2,-180.0,-19.2,0,0,8826,0,239,0,
4.9067,146.1,70.8,-409.2,-95.4,52.5,-183.9,-56.4,0,0,8832,0,240,0,
4.9100,145.5,54.0,-417.9,-125.7,50.1,-190.5,-65.1,0,0,8838,0,241,0,
4.9133,124.8,69.0,-404.7,-100.5,60.6,-186.3,-56.7,0,0,8844,0,242,0,
4.9167,107.7,111.6,-378.6,-47.1,72.0,-178.2,-36.3,0,0,8850,0,243,0,
4.9200,124.5,129.6,-374.1,-30.9,75.6,-177.9,-26.4,0,0,8856,0,244,0,
4.9233,132.6,78.0,-408.6,-95.7,51.9,-187.5,-57.9,0,0,8862,0,245,0,
4.9267,138.0,62.7,-410.7,-120.0,46.8,-188.1,-66.3,0,0,8868,0,246,0,
4.9300,134.7,96.3,-387.6,-93.3,55.2,-183.3,-56.1,0,0,8874,0,247,0,
4.9333,131.7,132.3,-363.0,-40.8,71.4,-173.7,-26.7,0,0,8880,0,248,0,
4.9367,122.4,137.7,-373.5,-25.2,70.8,-184.2,-27.6,0,0,8886,0,249,0,
4.9400,140.1,82.5,-399.6,-90.0,49.2,-190.5,-60.6,0,0,8892,0,250,0,
4.9433,142.8,61.8,-407.1,-117.6,47.7,-186.0,-66.6,0,0,8898,0,251,0,
4.9467,134.4,91.5,-387.0,-93.9,57.9,-179.4,-61.5,0,0,8904,0,252,0,
4.9500,130.8,131.1,-368.4,-45.3,69.9,-182.1,-39.6,0,0,8910,0,253,0,
4.9533,122.1,147.6,-365.4,-20.7,69.6,-184.2,-31.5,0,0,8916,0,254,0,
4.9567,128.7,92.4,-394.8,-84.6,53.4,-190.5,-57.0,0,0,8922,0,255,0,
4.9600,132.6,60.9,-408.0,-117.3,50.4,-189.0,-69.6,0,0,8928,0,0,0,
4.9633,138.0,85.8,-391.2,-91.5,57.3,-186.3,-63.0,0,0,8934,0,1,0,
4.9667,124.5,134.4,-360.9,-39.3,72.9,-178.8,-33.0,0,0,8940,0,2,0,
4.9700,126.6,145.5,-364.2,-21.3,72.0,-183.6,-31.8,0,0,8946,0,3,0,
4.9733,140.7,84.0,-403.8,-93.9,49.5,-190.5,-63.9,0,0,8952,0,4,0,
4.9767,143.7,69.6,-405.9,-118.8,44.1,-191.1,-76.8,0,0,8958,0,5,0,
4.9800,133.8,79.2,-397.2,-97.5,50.7,-191.1,-74.1,0,0,8964,0,6,0,
4.9833,124.8,121.5,-371.4,-42.6,68.7,-181.5,-49.5,0,0,8970,0,7,0,
4.9867,115.5,134.7,-369.6,-24.3,69.0,-185.1,-45.0,0,0,8976,0,8,0,
4.9900,132.6,70.2,-411.9,-96.0,46.8,-198.0,-73.5,0,0,8982,0,9,0,
4.9933,131.1,51.0,-415.2,-121.2,45.9,-193.8,-83.1,0,0,8988,0,10,0,
4.9967,125.4,70.2,-400.5,-95.1,53.1,-190.2,-72.3,0,0,8994,0,11,0,
5.0000,108.0,113.1,-374.1,-51.0,66.3,-186.3,-48.9,0,0,9000,0,12,0,
5.0033,124.8,133.8,-367.8,-26.7,69.6,-184.2,-37.2,0,0,9006,0,13,0,
5.0067,139.5,83.7,-400.2,-92.1,48.6,-193.5,-62.1,0,0,9012,0,14,0,
5.0100,136.8,54.9,-411.3,-121.8,42.9,-195.9,-84.6,0,0,9018,0,15,0,
5.0133,135.9,87.3,-387.3,-88.2,53.1,-187.8,-58.8,0,0,9024,0,16,0,
5.0167,123.0,129.3,-364.8,-39.9,66.6,-186.3,-48.3,0,0,9030,0,17,0,
5.0200,122.7,129.6,-370.8,-23.1,65.4,-190.8,-42.9,0,0,9036,0,18,0,
5.0233,133.2,70.8,-407.4,-95.1,42.3,-201.6,-77.7,0,0,9042,0,19,0,
5.0267,140.1,50.7,-413.4,-123.0,38.4,-203.7,-87.9,0,0,9048,0,20,0,
5.0300,128.7,73.2,-394.8,-94.8,45.3,-200.4,-78.0,0,0,9054,0,21,0,
5.0333,116.1,116.7,-375.0,-45.6,60.6,-192.9,-56.1,0,0,9060,0,22,0,
5.0367,122.4,128.1,-374.4,-25.8,58.5,-198.9,-50.7,0,0,9066,0,23,0,
5.0400,140.4,73.2,-409.8,-95.4,43.2,-199.5,-72.6,0,0,9072,0,24,0,
5.0433,140.1,53.1,-415.5,-120.3,40.8,-200.4,-86.1,0,0,9078,0,25,0,
5.0467,133.2,75.9,-397.2,-89.4,49.2,-196.5,-74.7,0,0,9084,0,26,0,
5.0500,120.3,118.2,-376.5,-42.6,63.0,-191.4,-55.2,0,0,9090,0,27,0,
5.0533,122.7,136.2,-371.4,-24.3,64.2,-190.8,-43.8,0,0,9096,0,28,0,
5.0567,134.7,72.0,-409.8,-96.0,43.8,-201.3,-74.1,0,0,9102,0,29,0,
5.0600,138.9,47.7,-415.2,-121.5,39.6,-199.2,-85.5,0,0,9108,0,30,0,
5.0633,134.1,71.4,-401.4,-96.6,50.1,-195.9,-75.9,0,0,9114,0,31,0,
5.0667,125.1,115.2,-373.2,-45.3,68.1,-186.6,-51.9,0,0,9120,0,32,0,
5.0700,130.2,132.0,-372.3,-29.1,67.2,-187.2,-40.5,0,0,9126,0,33,0,
5.0733,132.3,78.6,-409.8,-95.1,42.3,-201.0,-72.9,0,0,9132,0,34,0,
5.0767,145.5,66.0,-413.4,-116.7,42.6,-196.5,-73.8,0,0,9138,0,35,0,
5.0800,135.9,87.9,-395.7,-88.5,49.8,-190.5,-63.6,0,0,9144,0,36,0,
5.0833,127.5,138.0,-370.5,-38.1,66.0,-184.5,-42.9,0,0,9150,0,37,0,
5.0867,122.1,147.3,-372.6,-19.5,67.2,-185.4,-33.6,0,0,9156,0,38,0,
5.0900,138.0,84.0,-405.9,-89.4,46.2,-196.8,-66.6,0,0,9162,0,39,0,
5.0933,130.8,60.9,-412.8,-119.1,41.7,-196.5,-77.1,0,0,9168,0,40,0,
5.0967,129.6,88.8,-395.4,-88.5,52.8,-190.5,-59.7,0,0,9174,0,41,0,
5.1000,117.6,123.0,-373.5,-43.5,64.8,-187.8,-36.3,0,0,9180,0,42,0,
5.1033,128.7,147.9,-368.7,-22.8,69.3,-186.9,-25.2,0,0,9186,0,43,0,
5.1067,141.6,90.6,-404.1,-88.5,46.8,-195.3,-52.5,0,0,9192,0,44,0,
5.1100,144.3,71.1,-410.4,-115.8,38.7,-198.0,-67.8,0,0,9198,0,45,0,
5.1133,139.2,104.1,-387.9,-90.9,48.3,-192.3,-55.8,0,0,9204,0,46,0,
5.1167,126.6,142.8,-370.8,-44.4,59.7,-188.1,-38.7,0,0,9210,0,47,0,
5.1200,123.3,146.4,-372.6,-31.5,63.6,-189.0,-30.6,0,0,9216,0,48,0,
5.1233,138.6,83.7,-408.3,-97.5,40.8,-201.0,-67.8,0,0,9222,0,49,0,
5.1267,127.2,61.2,-415.2,-123.0,36.6,-204.6,-82.5,0,0,9228,0,50,0,
5.1300,115.8,81.6,-398.7,-98.4,48.3,-199.8,-72.9,0,0,9234,0,51,0,
5.1333,114.6,129.0,-371.1,-47.7,59.4,-189.9,-45.9,0,0,9240,0,52,0,
5.1367,121.2,146.7,-367.8,-27.0,67.5,-189.0,-35.1,0,0,9246,0,53,0,
5.1400,146.7,90.0,-397.8,-92.4,48.6,-197.1,-65.4,0,0,9252,0,54,0,
5.1433,137.1,71.7,-408.0,-118.5,43.2,-194.1,-74.7,0,0,9258,0,55,0,
5.1467,131.4,86.7,-392.7,-93.3,54.9,-192.6,-62.1,0,0,9264,0,56,0,
5.1500,119.4,128.7,-370.5,-48.0,66.6,-185.1,-42.6,0,0,9270,0,57,0,
5.1533,125.4,143.4,-366.0,-29.1,70.2,-186.0,-32.7,0,0,9276,0,58,0,
5.1567,133.2,81.0,-405.6,-97.8,46.8,-194.4,-64.8,0,0,9282,0,59,0,
5.1600,130.2,59.7,-413.4,-124.2,41.7,-199.2,-79.2,0,0,9288,0,60,0,
5.1633,132.9,87.3,-393.9,-93.0,52.5,-190.5,-63.0,0,0,9294,0,61,0,
5.1667,120.6,128.1,-372.6,-40.2,67.2,-183.3,-40.2,0,0,9300,0,62,0,
5.1700,125.1,140.1,-370.5,-26.7,72.9,-181.8,-34.8,0,0,9306,0,63,0,
5.1733,138.6,81.6,-408.0,-89.7,54.0,-191.1,-63.6,0,0,9312,0,64,0,
5.1767,141.9,68.7,-413.7,-119.4,48.9,-192.6,-72.6,0,0,9318,0,65,0,
5.1800,139.2,107.4,-391.5,-90.3,57.9,-186.9,-56.4,0,0,9324,0,66,0,
5.1833,129.6,134.4,-373.5,-48.3,72.0,-178.2,-36.9,0,0,9330,0,67,0,
5.1867,134.4,143.1,-372.9,-32.4,72.0,-183.9,-27.0,0,0,9336,0,68,0,
5.1900,145.5,88.8,-407.1,-97.5,49.8,-192.6,-54.0,0,0,9342,0,69,0,
5.1933,148.2,71.4,-413.1,-120.6,46.2,-191.7,-64.5,0,0,9348,0,70,0,
5.1967,131.7,87.6,-398.1,-93.9,54.6,-191.1,-61.5,0,0,9354,0,71,0,
5.2000,131.4,123.9,-375.9,-47.1,64.8,-186.3,-42.6,0,0,9360,0,72,0,
5.2033,139.2,144.3,-369.9,-28.2,66.9,-183.3,-29.4,0,0,9366,0,73,0,
5.2067,151.2,92.4,-400.5,-96.3,51.0,-189.0,-57.0,0,0,9372,0,74,0,
5.2100,147.6,74.1,-407.1,-119.1,46.8,-189.9,-70.5,0,0,9378,0,75,0,
5.2133,141.6,99.0,-389.7,-90.0,57.0,-189.6,-57.0,0,0,9384,0,76,0,
5.2167,130.2,134.1,-371.7,-45.9,71.1,-186.0,-40.8,0,0,9390,0,77,0,
5.2200,139.8,150.9,-363.9,-29.4,72.0,-185.7,-29.4,0,0,9396,0,78,0,
5.2233,153.9,95.1,-397.5,-93.3,51.6,-192.3,-56.4,0,0,9402,0,79,0,
5.2267,154.5,78.9,-402.3,-116.7,47.7,-191.4,-64.5,0,0,9408,0,80,0,
5.2300,149.4,108.3,-384.3,-93.6,57.3,-183.3,-51.3,0,0,9414,0,81,0,
5.2333,135.0,150.0,-361.2,-46.2,69.3,-178.2,-31.8,0,0,9420,0,82,0,
5.2367,136.5,161.4,-360.9,-30.3,70.2,-181.2,-27.9,0,0,9426,0,83,0,
5.2400,159.9,99.9,-395.4,-91.5,52.5,-188.4,-55.5,0,0,9432,0,84,0,
5.2433,156.6,77.7,-403.5,-121.8,46.8,-186.3,-68.4,0,0,9438,0,85,0,
5.2467,146.7,104.1,-385.5,-95.1,56.7,-183.9,-54.9,0,0,9444,0,86,0,
5.2500,134.1,137.4,-367.8,-49.2,66.6,-180.0,-39.9,0,0,9450,0,87,0,
5.2533,131.4,154.5,-363.6,-27.6,75.0,-179.1,-29.7,0,0,9456,0,88,0,
5.2567,142.8,96.6,-399.3,-89.1,51.6,-191.7,-62.1,0,0,9462,0,89,0,
5.2600,152.1,80.1,-400.2,-115.5,46.8,-189.3,-69.6,0,0,9468,0,90,0,
5.2633,154.5,114.3,-377.7,-86.7,58.8,-183.6,-48.6,0,0,9474,0,91,0,
5.2667,130.5,136.2,-365.7,-49.8,65.1,-187.5,-40.2,0,0,9480,0,92,0,
5.2700,124.5,151.5,-364.5,-27.3,68.1,-189.6,-37.5,0,0,9486,0,93,0,
5.2733,136.5,92.4,-399.0,-93.9,46.2,-198.3,-64.8,0,0,9492,0,94,0,
5.2767,140.4,78.9,-407.1,-120.9,43.5,-196.8,-71.1,0,0,9498,0,95,0,
5.2800,124.8,94.2,-398.7,-99.3,47.4,-195.6,-62.7,0,0,9504,0,96,0,
5.2833,112.8,136.5,-372.9,-44.4,64.2,-190.2,-42.0,0,0,9510,0,97,0,
5.2867,114.3,146.7,-375.0,-24.6,63.6,-191.1,-36.9,0,0,9516,0,98,0,
5.2900,137.1,98.4,-401.4,-87.3,49.5,-196.2,-63.3,0,0,9522,0,99,0,
5.2933,136.5,75.6,-409.5,-109.8,44.1,-196.5,-68.1,0,0,9528,0,100,0,
5.2967,127.2,101.7,-391.5,-89.7,50.4,-200.1,-62.1,0,0,9534,0,101,0,
5.3000,112.5,135.3,-371.7,-46.2,59.7,-196.2,-45.0,0,0,9540,0,102,0,
5.3033,112.5,137.1,-373.8,-25.8,61.8,-198.9,-45.6,0,0,9546,0,103,0,
5.3067,125.7,87.0,-407.1,-91.5,41.7,-207.6,-72.6,0,0,9552,0,104,0,
5.3100,127.2,66.6,-416.4,-122.4,39.0,-209.7,-81.9,0,0,9558,0,105,0,
5.3133,123.9,98.4,-399.0,-98.1,48.3,-200.7,-64.8,0,0,9564,0,106,0,
5.3167,116.4,124.5,-376.8,-48.3,65.4,-193.2,-41.4,0,0,9570,0,107,0,
5.3200,118.5,138.6,-369.6,-29.1,69.6,-191.1,-35.4,0,0,9576,0,108,0,
5.3233,121.5,79.5,-410.4,-96.0,50.1,-200.7,-61.8,0,0,9582,0,109,0,
5.3267,126.3,63.6,-414.0,-117.3,48.0,-198.6,-70.8,0,0,9588,0,110,0,
5.3300,121.2,94.5,-394.2,-95.4,55.8,-200.1,-58.8,0,0,9594,0,111,0,
5.3333,117.3,136.5,-366.3,-46.5,69.6,-190.8,-39.0,0,0,9600,0,112,0,
5.3367,119.7,147.6,-364.8,-26.7,70.5,-192.3,-33.6,0,0,9606,0,113,0,
5.3400,129.3,89.7,-401.7,-92.1,49.2,-197.4,-62.4,0,0,9612,0,114,0,
5.3433,137.1,75.3,-403.5,-112.8,46.5,-197.1,-66.9,0,0,9618,0,115,0,
5.3467,131.1,105.0,-381.9,-86.1,63.0,-185.4,-50.7,0,0,9624,0,116,0,
5.3500,133.5,140.4,-360.6,-45.3,68.1,-186.6,-33.6,0,0,9630,0,117,0,
5.3533,134.4,154.5,-362.4,-25.2,72.0,-191.7,-27.9,0,0,9636,0,118,0,
5.3567,146.7,107.4,-393.9,-91.5,48.9,-200.4,-53.7,0,0,9642,0,119,0,
5.3600,144.6,89.4,-400.2,-114.3,51.0,-194.7,-60.3,0,0,9648,0,120,0,
5.3633,139.5,114.6,-386.1,-92.4,57.0,-192.3,-51.6,0,0,9654,0,121,0,
5.3667,132.9,138.6,-367.8,-50.4,63.3,-193.8,-30.0,0,0,9660,0,122,0,
5.3700,134.4,152.7,-363.9,-28.5,71.4,-189.0,-16.8,0,0,9666,0,123,0,
5.3733,147.6,97.2,-396.0,-88.8,52.2,-197.4,-50.7,0,0,9672,0,124,0,
5.3767,147.0,87.3,-398.4,-114.0,47.1,-193.5,-59.7,0,0,9678,0,125,0,
5.3800,140.7,105.3,-386.7,-91.8,57.0,-190.5,-50.7,0,0,9684,0,126,0,
5.3833,135.0,139.8,-364.8,-47.7,71.7,-182.4,-29.4,0,0,9690,0,127,0,
5.3867,127.8,153.6,-362.4,-24.9,78.3,-182.7,-23.7,0,0,9696,0,128,0,
5.3900,141.6,102.6,-394.2,-91.2,52.8,-192.6,-51.9,0,0,9702,0,129,0,
5.3933,144.6,85.5,-404.7,-116.1,48.3,-195.3,-61.2,0,0,9708,0,130,0,
5.3967,140.1,106.8,-390.3,-97.2,58.5,-189.6,-45.6,0,0,9714,0,131,0,
5.4000,143.1,150.9,-364.5,-47.7,69.6,-184.5,-28.8,0,0,9720,0,132,0,
5.4033,141.6,159.3,-363.9,-32.4,68.1,-186.3,-23.7,0,0,9726,0,133,0,
5.4067,154.2,97.8,-397.2,-90.3,56.4,-187.5,-47.1,0,0,9732,0,134,0,
5.4100,152.7,73.2,-404.7,-122.1,46.8,-196.5,-60.0,0,0,9738,0,135,0,
5.4133,142.5,105.6,-389.7,-99.9,56.7,-192.6,-50.4,0,0,9744,0,136,0,
5.4167,133.5,141.0,-365.7,-56.7,67.8,-186.6,-29.4,0,0,9750,0,137,0,
5.4200,137.4,153.0,-366.3,-30.9,71.7,-188.1,-25.5,0,0,9756,0,138,0,
5.4233,149.7,103.5,-399.0,-94.8,53.1,-197.7,-56.4,0,0,9762,0,139,0,
5.4267,147.6,84.6,-405.0,-120.6,45.9,-198.6,-68.4,0,0,9768,0,140,0,
5.4300,146.7,105.0,-385.2,-98.7,54.6,-191.7,-48.9,0,0,9774,0,141,0,
5.4333,139.2,148.2,-364.8,-50.4,71.1,-182.7,-26.1,0,0,9780,0,142,0,
5.4367,136.5,163.5,-360.6,-24.6,71.1,-187.2,-18.3,0,0,9786,0,143,0,
5.4400,147.6,103.2,-394.5,-91.2,51.6,-189.9,-49.8,0,0,9792,0,144,0,
5.4433,152.4,87.9,-399.6,-123.6,45.9,-193.8,-60.3,0,0,9798,0,145,0,
5.4467,148.8,116.4,-380.4,-93.0,54.6,-192.9,-40.5,0,0,9804,0,146,0,
5.4500,135.3,149.1,-359.7,-46.8,71.7,-181.5,-21.6,0,0,9810,0,147,0,
5.4533,133.2,165.3,-360.0,-26.1,69.3,-183.9,-18.0,0,0,9816,0,148,0,
5.4567,155.4,110.4,-390.3,-91.2,48.6,-190.2,-40.5,0,0,9822,0,149,0,
5.4600,148.8,76.2,-404.7,-125.7,42.3,-198.9,-66.9,0,0,9828,0,150,0,
5.4633,142.5,102.3,-387.0,-98.1,52.2,-191.1,-46.8,0,0,9834,0,151,0,
5.4667,129.9,142.8,-363.9,-45.9,66.9,-189.9,-26.7,0,0,9840,0,152,0,
5.4700,132.9,161.4,-361.5,-21.6,68.1,-188.4,-14.4,0,0,9846,0,153,0,
5.4733,144.6,111.0,-390.9,-90.3,54.3,-192.0,-47.4,0,0,9852,0,154,0,
5.4767,148.5,77.7,-402.3,-122.7,40.5,-194.1,-62.7,0,0,9858,0,155,0,
5.4800,136.2,103.8,-383.1,-96.3,55.2,-187.2,-48.0,0,0,9864,0,156,0,
5.4833,126.3,141.0,-364.2,-51.6,65.1,-187.2,-22.5,0,0,9870,0,157,0,
5.4867,126.3,161.4,-356.7,-27.6,70.2,-189.6,-16.8,0,0,9876,0,158,0,
5.4900,141.6,98.4,-397.8,-101.4,47.4,-196.5,-51.6,0,0,9882,0,159,0,
5.4933,149.1,79.5,-402.9,-127.8,44.7,-195.3,-63.3,0,0,9888,0,160,0,
5.4967,138.9,115.8,-383.7,-98.7,51.6,-187.5,-45.6,0,0,9894,0,161,0,
5.5000,136.8,155.4,-355.8,-47.7,67.2,-180.6,-23.4,0,0,9900,0,162,0,
5.5033,133.8,182.7,-349.2,-22.5,75.9,-178.5,-8.7,0,0,9906,0,163,0,
5.5067,149.1,117.0,-389.4,-92.4,54.3,-186.6,-40.8,0,0,9912,0,164,0,
5.5100,148.5,97.5,-393.9,-124.2,45.9,-190.8,-51.6,0,0,9918,0,165,0,
5.5133,142.5,110.1,-384.0,-101.4,54.3,-189.6,-39.0,0,0,9924,0,166,0,
5.5167,125.1,151.2,-360.3,-56.1,69.3,-184.8,-30.3,0,0,9930,0,167,0,
5.5200,133.8,168.0,-358.8,-31.2,75.3,-184.2,-15.9,0,0,9936,0,168,0,
5.5233,156.3,110.7,-392.1,-96.0,57.3,-183.9,-37.2,0,0,9942,0,169,0,
5.5267,159.3,98.1,-395.1,-119.4,52.5,-181.2,-41.1,0,0,9948,0,170,0,
5.5300,147.9,110.7,-384.9,-99.3,60.9,-180.9,-43.2,0,0,9954,0,171,0,
5.5333,143.1,164.4,-355.2,-44.4,71.4,-174.3,-16.2,0,0,9960,0,172,0,
5.5367,143.7,175.5,-355.2,-21.6,76.2,-173.1,-1.8,0,0,9966,0,173,0,
5.5400,149.4,114.6,-390.9,-91.5,53.4,-183.0,-37.5,0,0,9972,0,174,0,
5.5433,159.0,92.7,-398.4,-121.8,50.1,-181.8,-47.1,0,0,9978,0,175,0,
5.5467,148.8,116.1,-382.5,-95.4,54.6,-185.4,-35.4,0,0,9984,0,176,0,
5.5500,135.3,152.1,-363.3,-52.8,66.0,-174.3,-13.2,0,0,9990,0,177,0,
5.5533,132.3,158.4,-361.2,-25.2,69.9,-181.8,-14.4,0,0,9996,0,178,0,
5.5567,148.2,100.5,-396.3,-90.3,54.9,-187.5,-45.0,0,0,10002,0,179,0,
5.5600,151.5,77.4,-405.3,-119.4,54.0,-183.3,-54.6,0,0,10008,0,180,0,
5.5633,147.6,103.8,-384.9,-96.9,52.8,-182.7,-42.9,0,0,10014,0,181,0,
5.5667,139.2,150.9,-359.7,-48.3,67.5,-181.2,-21.6,0,0,10020,0,182,0,
5.5700,143.4,163.5,-358.2,-24.0,71.1,-180.6,-11.4,0,0,10026,0,183,0,
5.5733,142.8,90.3,-400.8,-92.1,51.6,-186.9,-50.1,0,0,10032,0,184,0,
5.5767,144.3,73.2,-407.7,-127.8,42.3,-198.9,-62.7,0,0,10038,0,185,0,
5.5800,148.2,103.8,-387.9,-99.9,54.6,-185.7,-42.9,0,0,10044,0,186,0,
5.5833,142.2,155.4,-356.4,-46.8,68.7,-175.8,-25.8,0,0,10050,0,187,0,
5.5867,141.6,173.1,-354.9,-19.8,71.4,-177.3,-5.1,0,0,10056,0,188,0,
5.5900,155.1,102.9,-400.2,-93.9,46.8,-189.3,-43.2,0,0,10062,0,189,0,
5.5933,157.2,74.1,-407.1,-122.4,42.3,-186.3,-65.1,0,0,10068,0,190,0,
5.5967,148.2,97.2,-390.6,-99.9,50.7,-185.7,-47.1,0,0,10074,0,191,0,
5.6000,147.6,150.6,-362.4,-47.7,64.8,-178.8,-30.0,0,0,10080,0,192,0,
5.6033,141.6,161.4,-357.0,-19.8,69.3,-178.5,-14.7,0,0,10086,0,193,0,
5.6067,154.2,100.2,-397.8,-94.5,45.3,-193.2,-53.7,0,0,10092,0,194,0,
5.6100,162.9,81.9,-401.7,-123.9,41.1,-186.3,-58.8,0,0,10098,0,195,0,
5.6133,158.1,107.7,-379.8,-89.7,56.7,-180.0,-46.2,0,0,10104,0,196,0,
5.6167,140.7,147.0,-358.8,-40.2,69.6,-176.1,-22.8,0,0,10110,0,197,0,
5.6200,138.3,172.8,-350.7,-14.1,74.1,-177.0,-11.7,0,0,10116,0,198,0,
5.6233,153.6,103.5,-392.7,-85.2,52.8,-185.7,-53.4,0,0,10122,0,199,0,
5.6267,149.7,88.8,-395.4,-117.3,45.6,-187.2,-57.9,0,0,10128,0,200,0,
5.6300,146.1,111.0,-379.2,-94.5,51.9,-177.9,-45.9,0,0,10134,0,201,0,
5.6333,151.5,157.8,-354.0,-39.3,72.0,-173.1,-24.0,0,0,10140,0,202,0,
5.6367,146.1,173.1,-351.9,-17.1,72.6,-180.6,-13.2,0,0,10146,0,203,0,
5.6400,155.7,110.7,-390.6,-90.9,50.1,-186.0,-48.6,0,0,10152,0,204,0,
5.6433,153.3,85.2,-402.3,-122.1,41.4,-189.9,-57.3,0,0,10158,0,205,0,
5.6467,152.4,122.1,-380.4,-90.3,58.2,-177.0,-35.7,0,0,10164,0,206,0,
5.6500,147.3,158.1,-358.8,-41.4,71.1,-174.0,-19.2,0,0,10170,0,207,0,
5.6533,144.6,169.2,-357.6,-20.1,74.4,-175.8,-6.0,0,0,10176,0,208,0,
5.6567,153.3,111.6,-386.7,-89.4,50.7,-191.7,-51.6,0,0,10182,0,209,0,
5.6600,153.9,85.2,-399.9,-125.7,47.7,-175.5,-51.6,0,0,10188,0,210,0,
5.6633,151.5,110.1,-379.5,-98.4,57.0,-180.6,-46.2,0,0,10194,0,211,0,
5.6667,139.8,151.2,-360.3,-52.8,68.4,-182.7,-16.2,0,0,10200,0,212,0,
5.6700,141.9,165.9,-357.6,-30.6,69.6,-186.3,-24.9,0,0,10206,0,213,0,
5.6733,145.8,113.7,-396.9,-92.7,52.2,-186.3,-47.7,0,0,10212,0,214,0,
5.6767,152.7,87.6,-403.8,-127.2,45.3,-191.4,-59.1,0,0,10218,0,215,0,
5.6800,143.1,103.8,-387.6,-104.7,59.4,-171.0,-36.0,0,0,10224,0,216,0,
5.6833,135.9,145.5,-362.7,-52.2,66.3,-189.0,-30.3,0,0,10230,0,217,0,
5.6867,133.2,165.3,-359.1,-24.9,75.0,-176.1,-11.4,0,0,10236,0,218,0,
5.6900,158.4,102.6,-395.4,-94.8,55.5,-181.8,-45.9,0,0,10242,0,219,0,
5.6933,160.2,94.2,-395.7,-121.5,45.6,-190.2,-51.6,0,0,10248,0,220,0,
5.6967,156.9,107.4,-382.2,-95.4,60.3,-184.2,-37.8,0,0,10254,0,221,0,
5.7000,148.2,146.7,-362.4,-49.2,70.8,-169.8,-12.6,0,0,10260,0,222,0,
5.7033,146.7,176.4,-355.2,-25.8,72.0,-180.3,-17.1,0,0,10266,0,223,0,
5.7067,150.6,112.5,-396.0,-92.7,53.7,-180.6,-28.5,0,0,10272,0,224,0,
5.7100,160.5,72.3,-409.5,-127.8,45.0,-195.9,-61.2,0,0,10278,0,225,0,
5.7133,143.4,103.8,-394.5,-103.8,61.2,-176.1,-37.2,0,0,10284,0,226,0,
5.7167,145.8,156.3,-360.6,-45.9,71.7,-178.8,-22.5,0,0,10290,0,227,0,
5.7200,145.2,163.2,-355.5,-21.3,70.2,-179.1,-4.8,0,0,10296,0,228,0,
5.7233,165.9,101.7,-399.9,-89.1,54.3,-193.8,-48.6,0,0,10302,0,229,0,
5.7267,159.0,78.3,-408.3,-124.8,46.5,-195.3,-64.5,0,0,10308,0,230,0,
5.7300,151.5,107.7,-385.8,-99.6,56.1,-190.2,-47.4,0,0,10314,0,231,0,
5.7333,145.5,139.8,-364.2,-46.2,71.7,-180.3,-24.0,0,0,10320,0,232,0,
5.7367,151.2,159.6,-363.3,-21.9,75.6,-176.7,-12.9,0,0,10326,0,233,0,
5.7400,149.1,99.6,-396.6,-91.8,51.3,-199.5,-48.0,0,0,10332,0,234,0,
5.7433,155.1,69.6,-412.2,-128.4,41.4,-199.5,-66.3,0,0,10338,0,235,0,
5.7467,150.9,100.5,-396.3,-102.0,51.0,-193.8,-54.3,0,0,10344,0,236,0,
5.7500,139.2,150.9,-358.2,-47.1,65.4,-183.0,-17.1,0,0,10350,0,237,0,
5.7533,143.4,155.7,-361.2,-20.7,71.1,-190.2,-18.0,0,0,10356,0,238,0,
5.7567,156.0,105.0,-394.5,-89.7,47.7,-202.5,-55.2,0,0,10362,0,239,0,
5.7600,150.6,70.8,-410.1,-125.1,43.5,-195.0,-73.2,0,0,10368,0,240,0,
5.7633,142.8,99.0,-381.6,-95.7,49.2,-197.1,-56.7,0,0,10374,0,241,0,
5.7667,134.1,136.5,-357.6,-45.3,69.6,-181.2,-35.4,0,0,10380,0,242,0,
5.7700,141.0,156.3,-356.7,-21.9,69.0,-199.5,-26.1,0,0,10386,0,243,0,
5.7733,140.7,106.8,-388.8,-90.9,47.4,-197.1,-61.2,0,0,10392,0,244,0,
5.7767,144.0,64.8,-409.2,-127.5,39.9,-203.4,-73.8,0,0,10398,0,245,0,
5.7800,145.5,88.5,-394.8,-105.9,54.0,-192.9,-62.1,0,0,10404,0,246,0,
5.7833,126.6,141.0,-370.5,-53.7,69.3,-180.6,-18.9,0,0,10410,0,247,0,
5.7867,129.0,151.5,-365.7,-25.2,68.4,-192.3,-31.8,0,0,10416,0,248,0,
5.7900,143.7,96.6,-407.1,-95.7,48.6,-200.1,-54.6,0,0,10422,0,249,0,
5.7933,144.6,70.5,-408.6,-127.5,48.3,-188.7,-66.3,0,0,10428,0,250,0,
5.7967,136.8,99.0,-395.1,-102.6,55.2,-195.0,-50.1,0,0,10434,0,251,0,
5.8000,139.2,141.6,-361.8,-51.0,67.8,-193.8,-38.7,0,0,10440,0,252,0,
5.8033,127.5,168.9,-360.0,-26.4,69.6,-193.2,-17.4,0,0,10446,0,253,0,
5.8067,145.5,93.3,-398.7,-95.7,49.8,-200.1,-57.0,0,0,10452,0,254,0,
5.8100,132.6,79.2,-403.5,-127.5,46.2,-199.8,-68.7,0,0,10458,0,255,0,
5.8133,143.7,92.1,-388.5,-104.1,56.1,-188.1,-50.4,0,0,10464,0,0,0,
5.8167,135.0,147.6,-366.0,-52.5,66.0,-186.9,-22.5,0,0,10470,0,1,0,
5.8200,135.6,159.3,-357.3,-29.1,68.7,-191.1,-19.5,0,0,10476,0,2,0,
5.8233,138.0,111.3,-385.5,-91.8,49.5,-190.5,-46.8,0,0,10482,0,3,0,
5.8267,144.3,80.4,-402.0,-125.7,40.5,-208.8,-69.3,0,0,10488,0,4,0,
5.8300,146.7,99.9,-392.7,-102.0,49.2,-198.3,-54.6,0,0,10494,0,5,0,
5.8333,127.8,146.1,-359.1,-50.4,66.3,-185.4,-34.8,0,0,10500,0,6,0,
5.8367,143.1,158.1,-363.0,-24.9,73.5,-183.9,-18.9,0,0,10506,0,7,0,
5.8400,141.6,104.7,-396.6,-95.4,47.4,-200.4,-58.8,0,0,10512,0,8,0,
5.8433,154.5,68.1,-415.8,-131.4,42.9,-203.1,-70.2,0,0,10518,0,9,0,
5.8467,143.7,112.5,-382.8,-102.0,53.4,-193.8,-49.5,0,0,10524,0,10,0,
5.8500,147.9,153.6,-355.2,-48.0,71.4,-180.9,-30.3,0,0,10530,0,11,0,
5.8533,139.2,165.3,-360.6,-24.6,74.4,-185.1,-15.6,0,0,10536,0,12,0,
5.8567,153.9,101.1,-397.5,-93.6,49.8,-201.9,-56.1,0,0,10542,0,13,0,
5.8600,153.0,79.8,-407.1,-129.0,45.9,-195.6,-64.5,0,0,10548,0,14,0,
5.8633,144.0,107.4,-388.8,-95.7,53.4,-199.2,-52.2,0,0,10554,0,15,0,
5.8667,141.0,143.7,-366.3,-47.4,70.5,-188.4,-28.2,0,0,10560,0,16,0,
5.8700,138.9,168.0,-356.4,-22.2,71.4,-190.8,-20.1,0,0,10566,0,17,0,
5.8733,147.0,98.7,-402.0,-93.6,50.1,-198.6,-57.0,0,0,10572,0,18,0,
5.8767,140.7,68.4,-408.0,-125.4,42.0,-199.8,-71.4,0,0,10578,0,19,0,
5.8800,144.3,103.2,-393.0,-101.4,51.0,-193.2,-57.6,0,0,10584,0,20,0,
5.8833,129.6,139.5,-366.9,-46.5,63.6,-188.7,-35.1,0,0,10590,0,21,0,
5.8867,137.4,164.4,-360.9,-21.3,74.1,-186.6,-20.4,0,0,10596,0,22,0,
5.8900,140.1,99.0,-396.6,-90.9,51.3,-202.5,-59.7,0,0,10602,0,23,0,
5.8933,144.0,70.2,-411.3,-128.7,40.2,-200.1,-73.2,0,0,10608,0,24,0,
5.8967,147.9,108.0,-383.7,-96.0,52.5,-187.2,-47.4,0,0,10614,0,25,0,
5.9000,147.9,142.8,-355.2,-46.8,63.0,-190.2,-27.3,0,0,10620,0,26,0,
5.9033,136.8,175.2,-347.7,-16.2,70.8,-187.2,-10.2,0,0,10626,0,27,0,
5.9067,151.2,105.6,-396.6,-92.7,47.7,-200.1,-48.6,0,0,10632,0,28,0,
5.9100,157.5,83.1,-404.1,-125.7,43.8,-193.5,-58.5,0,0,10638,0,29,0,
5.9133,139.5,105.0,-382.2,-101.7,50.1,-189.9,-45.0,0,0,10644,0,30,0,
5.9167,138.9,148.8,-360.9,-48.0,62.4,-188.4,-25.8,0,0,10650,0,31,0,
5.9200,139.8,162.0,-358.8,-23.1,68.4,-186.0,-15.9,0,0,10656,0,32,0,
5.9233,150.6,103.5,-390.3,-94.2,46.8,-198.9,-50.7,0,0,10662,0,33,0,
5.9267,145.5,73.2,-404.1,-125.4,39.0,-197.7,-65.4,0,0,10668,0,34,0,
5.9300,142.5,96.3,-383.4,-100.8,47.4,-197.1,-55.2,0,0,10674,0,35,0,
5.9333,136.8,142.8,-356.4,-52.5,65.1,-186.0,-26.7,0,0,10680,0,36,0,
5.9367,134.4,166.2,-356.4,-22.2,69.6,-185.4,-9.9,0,0,10686,0,37,0,
5.9400,146.4,104.4,-396.9,-97.5,45.9,-199.2,-47.1,0,0,10692,0,38,0,
5.9433,148.2,79.5,-408.0,-132.3,37.5,-208.8,-66.9,0,0,10698,0,39,0,
5.9467,143.4,105.3,-386.7,-100.5,49.5,-198.0,-49.2,0,0,10704,0,40,0,
5.9500,134.1,143.1,-363.3,-48.3,65.7,-187.8,-20.7,0,0,10710,0,41,0,
5.9533,123.6,166.5,-359.4,-22.8,68.1,-183.6,-10.8,0,0,10716,0,42,0,
5.9567,134.4,105.0,-392.1,-94.8,43.5,-210.0,-49.8,0,0,10722,0,43,0,
5.9600,134.4,72.3,-411.0,-130.2,39.0,-198.9,-59.1,0,0,10728,0,44,0,
