Time,LE,F4,C4,P4,P3,C3,F3,Pz,Trigger,Time_Offset,ADC_Status,ADC_Sequence,Event,Comments
0.0033,169.5,138.0,-160.8,-82.8,54.0,-28.8,94.8,0,0,6,0,72,0,
0.0067,181.2,144.9,-166.2,-83.1,58.2,-24.0,99.9,0,0,12,0,73,0,
0.0100,174.3,166.5,-144.6,-61.2,59.4,-22.2,111.3,0,0,18,0,74,0,
0.0133,177.0,184.5,-140.1,-40.8,68.7,-15.3,122.7,0,0,24,0,75,0,
0.0167,168.6,171.9,-147.0,-49.8,63.6,-17.1,114.9,0,0,30,0,76,0,
0.0200,177.0,144.6,-165.6,-76.2,53.7,-24.9,106.2,0,0,36,0,77,0,
0.0233,176.1,163.2,-154.2,-76.8,53.7,-22.5,96.3,0,0,42,0,78,0,
0.0267,174.0,159.3,-151.8,-62.7,59.7,-18.9,98.4,0,0,48,0,79,0,
0.0300,161.4,185.4,-138.6,-41.4,60.9,-17.4,115.2,0,0,54,0,80,0,
0.0333,171.0,163.2,-143.7,-50.7,54.3,-24.9,105.6,0,0,60,0,81,0,
0.0367,181.2,147.9,-162.0,-74.4,52.2,-21.6,107.7,0,0,66,0,82,0,
0.0400,179.4,145.8,-159.9,-78.6,54.3,-21.0,104.4,0,0,72,0,83,0,
0.0433,168.9,172.5,-144.9,-63.6,60.3,-15.9,111.6,0,0,78,0,84,0,
0.0467,159.9,189.6,-132.6,-35.4,67.5,-11.4,126.9,0,0,84,0,85,0,
0.0500,177.3,160.8,-150.9,-51.3,60.0,-18.0,106.8,0,0,90,0,86,0,
0.0533,179.1,152.7,-159.6,-71.1,53.7,-21.3,96.9,0,0,96,0,87,0,
0.0567,184.5,153.3,-153.9,-72.3,54.6,-24.3,99.6,0,0,102,0,88,0,
0.0600,172.5,175.8,-144.9,-62.4,60.6,-14.1,116.1,0,0,108,0,89,0,
0.0633,174.0,179.1,-130.5,-33.0,68.4,-12.3,128.4,0,0,114,0,90,0,
0.0667,182.1,178.2,-138.3,-45.9,63.3,-16.2,123.3,0,0,120,0,91,0,
0.0700,182.1,152.7,-151.2,-73.5,53.7,-27.0,108.9,0,0,126,0,92,0,
0.0733,171.0,150.6,-154.5,-75.0,52.5,-29.1,101.1,0,0,132,0,93,0,
0.0767,181.2,165.9,-142.5,-62.1,60.0,-20.7,116.4,0,0,138,0,94,0,
0.0800,171.0,186.9,-130.8,-37.8,68.4,-18.9,124.5,0,0,144,0,95,0,
0.0833,189.9,171.0,-139.2,-46.5,68.7,-9.6,116.7,0,0,150,0,96,0,
0.0867,191.1,160.8,-150.9,-74.4,61.5,-16.2,113.1,0,0,156,0,97,0,
0.0900,196.5,157.5,-148.2,-75.6,62.1,-9.9,111.9,0,0,162,0,98,0,
0.0933,191.1,162.9,-141.3,-60.0,68.7,-7.8,122.1,0,0,168,0,99,0,
0.0967,183.0,196.2,-130.8,-32.7,72.3,-9.9,123.6,0,0,174,0,100,0,
0.1000,187.2,163.2,-135.9,-46.2,64.8,-26.7,117.0,0,0,180,0,101,0,
0.1033,195.9,152.4,-152.7,-71.4,57.6,-22.8,107.1,0,0,186,0,102,0,
0.1067,194.7,149.4,-149.4,-76.8,58.8,-24.9,105.0,0,0,192,0,103,0,
0.1100,184.8,172.8,-139.2,-57.9,60.0,-16.8,113.7,0,0,198,0,104,0,
0.1133,182.7,187.8,-127.5,-34.5,66.6,-18.6,121.5,0,0,204,0,105,0,
0.1167,179.1,172.5,-142.5,-47.7,62.4,-24.0,113.7,0,0,210,0,106,0,
0.1200,190.8,144.9,-158.1,-76.5,52.8,-29.1,92.7,0,0,216,0,107,0,
0.1233,189.3,150.0,-152.7,-78.3,54.9,-25.8,93.6,0,0,222,0,108,0,
0.1267,178.2,160.5,-147.3,-67.8,64.5,-18.0,106.5,0,0,228,0,109,0,
0.1300,181.5,213.0,-127.5,-39.9,64.8,-20.1,115.2,0,0,234,0,110,0,
0.1333,188.7,180.3,-149.1,-54.6,62.7,-17.7,112.8,0,0,240,0,111,0,
0.1367,189.9,135.0,-167.1,-84.9,52.2,-27.3,94.2,0,0,246,0,112,0,
0.1400,182.7,143.7,-163.5,-87.6,49.8,-32.1,93.3,0,0,252,0,113,0,
0.1433,180.6,162.3,-147.9,-68.1,56.4,-27.3,99.3,0,0,258,0,114,0,
0.1467,172.5,176.4,-137.7,-40.5,65.1,-24.0,113.7,0,0,264,0,115,0,
0.1500,174.3,157.8,-155.4,-52.8,54.9,-28.2,99.0,0,0,270,0,116,0,
0.1533,181.5,139.2,-168.0,-84.0,52.2,-29.4,95.1,0,0,276,0,117,0,
0.1567,184.5,143.1,-165.3,-76.2,58.2,-21.3,92.7,0,0,282,0,118,0,
0.1600,182.1,159.9,-155.1,-65.1,61.8,-20.7,107.7,0,0,288,0,119,0,
0.1633,177.3,184.5,-137.7,-37.2,72.0,-20.4,113.1,0,0,294,0,120,0,
0.1667,178.2,168.0,-151.8,-53.7,63.0,-22.8,105.0,0,0,300,0,121,0,
0.1700,180.9,138.0,-167.4,-79.5,58.5,-28.5,92.1,0,0,306,0,122,0,
0.1733,182.7,145.8,-160.2,-81.0,58.8,-18.9,92.1,0,0,312,0,123,0,
0.1767,183.0,192.0,-148.5,-58.2,63.0,-21.9,107.7,0,0,318,0,124,0,
0.1800,175.5,180.6,-139.2,-32.1,70.2,-15.6,127.8,0,0,324,0,125,0,
0.1833,180.9,161.7,-155.4,-54.3,63.6,-19.8,120.3,0,0,330,0,126,0,
0.1867,183.3,134.4,-168.6,-81.6,54.9,-23.4,103.8,0,0,336,0,127,0,
0.1900,188.4,137.1,-166.8,-83.1,55.5,-23.4,100.8,0,0,342,0,128,0,
0.1933,171.0,159.9,-148.5,-64.8,60.6,-18.9,106.5,0,0,348,0,129,0,
0.1967,177.6,180.0,-150.3,-39.6,69.6,-19.2,117.3,0,0,354,0,130,0,
0.2000,180.6,157.2,-152.1,-46.8,61.8,-28.2,107.7,0,0,360,0,131,0,
0.2033,182.7,132.9,-173.7,-82.8,52.5,-33.6,90.3,0,0,366,0,132,0,
0.2067,180.6,135.3,-176.7,-84.0,55.2,-28.5,89.4,0,0,372,0,133,0,
0.2100,167.7,136.5,-169.8,-74.1,57.6,-28.5,95.1,0,0,378,0,134,0,
0.2133,166.5,175.2,-142.5,-34.5,66.6,-25.2,111.3,0,0,384,0,135,0,
0.2167,165.9,149.7,-162.6,-56.4,62.4,-23.1,108.3,0,0,390,0,136,0,
0.2200,180.0,132.3,-175.8,-83.1,57.0,-25.5,87.9,0,0,396,0,137,0,
0.2233,182.7,132.6,-168.6,-85.2,54.0,-31.5,92.7,0,0,402,0,138,0,
0.2267,174.6,178.8,-152.1,-63.9,56.7,-25.2,98.1,0,0,408,0,139,0,
0.2300,159.3,168.0,-140.7,-35.7,66.6,-17.7,115.5,0,0,414,0,140,0,
0.2333,168.3,155.1,-153.3,-51.3,60.6,-25.8,99.6,0,0,420,0,141,0,
0.2367,190.2,129.9,-167.7,-84.3,54.0,-25.5,97.5,0,0,426,0,142,0,
0.2400,196.2,134.4,-155.7,-80.7,57.3,-21.0,97.5,0,0,432,0,143,0,
0.2433,177.9,157.2,-144.0,-64.2,66.3,-19.2,106.5,0,0,438,0,144,0,
0.2467,175.2,177.3,-138.0,-33.6,67.8,-18.6,117.6,0,0,444,0,145,0,
0.2500,164.1,154.8,-148.2,-52.2,62.4,-24.0,112.5,0,0,450,0,146,0,
0.2533,190.8,131.7,-164.4,-81.9,50.7,-25.2,99.6,0,0,456,0,147,0,
0.2567,180.3,150.3,-164.7,-88.5,50.7,-27.3,93.9,0,0,462,0,148,0,
0.2600,183.3,152.4,-153.6,-67.8,63.6,-19.2,108.0,0,0,468,0,149,0,
0.2633,177.0,189.0,-136.8,-33.0,70.2,-18.3,128.4,0,0,474,0,150,0,
0.2667,193.5,167.7,-148.2,-48.6,61.2,-24.3,117.9,0,0,480,0,151,0,
0.2700,180.9,141.6,-164.1,-84.6,51.3,-26.7,99.0,0,0,486,0,152,0,
0.2733,195.9,136.8,-160.5,-81.6,54.9,-21.3,92.7,0,0,492,0,153,0,
0.2767,185.7,165.0,-144.0,-58.5,60.3,-19.5,105.0,0,0,498,0,154,0,
0.2800,179.7,183.9,-139.2,-28.8,69.3,-21.9,120.0,0,0,504,0,155,0,
0.2833,177.6,164.4,-151.2,-52.2,57.3,-27.3,106.8,0,0,510,0,156,0,
0.2867,186.9,133.5,-168.0,-81.0,47.7,-33.0,91.8,0,0,516,0,157,0,
0.2900,178.2,158.1,-162.6,-79.8,48.3,-29.7,92.4,0,0,522,0,158,0,
0.2933,173.1,148.8,-153.0,-60.0,56.7,-24.6,107.7,0,0,528,0,159,0,
0.2967,172.5,176.1,-140.1,-31.8,64.2,-25.2,116.1,0,0,534,0,160,0,
0.3000,171.6,160.2,-153.9,-54.3,55.5,-32.1,111.9,0,0,540,0,161,0,
0.3033,178.8,137.7,-167.4,-85.8,45.6,-37.2,96.6,0,0,546,0,162,0,
0.3067,169.5,157.5,-161.1,-83.4,51.6,-33.3,106.5,0,0,552,0,163,0,
0.3100,173.1,163.2,-148.8,-64.2,55.5,-30.3,111.0,0,0,558,0,164,0,
0.3133,163.8,174.9,-147.9,-39.3,62.4,-22.2,117.0,0,0,564,0,165,0,
0.3167,168.3,160.8,-156.9,-56.7,53.1,-40.5,107.7,0,0,570,0,166,0,
0.3200,181.8,154.5,-166.5,-86.4,47.1,-39.0,100.8,0,0,576,0,167,0,
0.3233,172.5,145.8,-166.8,-88.2,49.8,-37.2,98.4,0,0,582,0,168,0,
0.3267,173.4,164.4,-153.3,-66.0,60.3,-32.1,109.2,0,0,588,0,169,0,
0.3300,165.3,180.0,-144.6,-38.4,68.4,-24.0,123.6,0,0,594,0,170,0,
0.3333,184.8,169.5,-152.1,-55.2,61.5,-27.9,117.6,0,0,600,0,171,0,
0.3367,192.0,138.0,-170.4,-83.1,55.2,-31.2,102.9,0,0,606,0,172,0,
0.3400,183.6,161.4,-158.4,-81.0,60.9,-25.2,106.2,0,0,612,0,173,0,
0.3433,180.9,166.5,-154.2,-63.0,63.6,-23.1,111.3,0,0,618,0,174,0,
0.3467,183.0,187.5,-132.9,-34.5,70.2,-19.8,122.1,0,0,624,0,175,0,
0.3500,193.2,174.3,-153.6,-47.1,71.4,-18.3,123.0,0,0,630,0,176,0,
0.3533,192.3,151.2,-158.4,-72.9,63.3,-20.4,102.6,0,0,636,0,177,0,
0.3567,189.9,153.3,-161.7,-78.9,59.4,-25.5,102.9,0,0,642,0,178,0,
0.3600,177.3,178.2,-153.0,-66.3,62.7,-21.3,116.1,0,0,648,0,179,0,
0.3633,180.9,203.7,-137.4,-36.3,68.1,-15.0,126.6,0,0,654,0,180,0,
0.3667,183.0,181.8,-146.7,-50.1,66.0,-20.1,118.2,0,0,660,0,181,0,
0.3700,194.7,149.7,-165.0,-82.5,59.1,-18.0,110.1,0,0,666,0,182,0,
0.3733,193.8,156.9,-156.0,-77.7,59.7,-14.4,116.4,0,0,672,0,183,0,
0.3767,189.0,174.0,-144.9,-62.4,61.5,-18.9,114.3,0,0,678,0,184,0,
0.3800,181.8,199.8,-131.4,-34.8,65.7,-16.2,128.4,0,0,684,0,185,0,
0.3833,181.2,169.5,-150.6,-54.0,60.3,-29.7,110.1,0,0,690,0,186,0,
0.3867,187.2,167.4,-167.7,-82.8,50.7,-31.8,98.1,0,0,696,0,187,0,
0.3900,185.7,125.4,-168.9,-83.7,57.3,-28.2,94.5,0,0,702,0,188,0,
0.3933,174.9,170.1,-156.3,-65.1,59.7,-25.8,105.0,0,0,708,0,189,0,
0.3967,169.8,184.5,-144.0,-36.9,71.7,-18.3,118.2,0,0,714,0,190,0,
0.4000,191.1,167.1,-155.4,-60.0,63.6,-23.1,114.6,0,0,720,0,191,0,
0.4033,189.6,143.4,-163.8,-83.7,54.9,-21.3,94.2,0,0,726,0,192,0,
0.4067,185.1,146.4,-167.1,-83.4,58.8,-20.1,101.7,0,0,732,0,193,0,
0.4100,185.7,165.9,-156.3,-69.3,62.7,-24.0,104.1,0,0,738,0,194,0,
0.4133,174.0,192.6,-139.8,-40.8,70.2,-15.0,125.1,0,0,744,0,195,0,
0.4167,188.4,197.7,-142.8,-54.6,59.1,-23.7,112.8,0,0,750,0,196,0,
0.4200,201.6,152.1,-154.5,-79.2,52.8,-27.9,99.6,0,0,756,0,197,0,
0.4233,194.1,152.7,-155.7,-76.5,52.5,-26.1,100.8,0,0,762,0,198,0,
0.4267,189.3,170.4,-148.2,-60.6,57.6,-22.5,111.9,0,0,768,0,199,0,
0.4300,183.9,194.4,-133.5,-37.8,67.2,-16.2,120.6,0,0,774,0,200,0,
0.4333,187.8,173.4,-148.8,-53.1,62.1,-16.5,116.1,0,0,780,0,201,0,
0.4367,200.1,163.8,-154.2,-79.5,57.3,-27.0,106.8,0,0,786,0,202,0,
0.4400,193.5,158.7,-154.2,-78.6,56.7,-21.9,102.9,0,0,792,0,203,0,
0.4433,195.6,179.1,-142.2,-59.1,61.8,-15.0,114.6,0,0,798,0,204,0,
0.4467,188.1,198.0,-133.8,-36.9,68.7,-13.8,127.5,0,0,804,0,205,0,
0.4500,197.1,164.4,-147.6,-54.3,67.5,-16.2,123.3,0,0,810,0,206,0,
0.4533,202.5,165.3,-148.8,-74.4,66.0,-13.8,117.3,0,0,816,0,207,0,
0.4567,209.4,168.3,-154.8,-77.7,63.0,-10.2,115.2,0,0,822,0,208,0,
0.4600,195.0,184.2,-141.9,-61.2,65.4,-15.0,120.6,0,0,828,0,209,0,
0.4633,193.2,190.2,-129.3,-36.3,71.1,-13.5,125.4,0,0,834,0,210,0,
0.4667,186.3,187.2,-139.8,-50.7,62.4,-16.5,124.8,0,0,840,0,211,0,
0.4700,198.0,159.0,-153.0,-74.1,58.5,-21.9,114.9,0,0,846,0,212,0,
0.4733,192.6,151.8,-155.4,-77.4,59.1,-21.6,113.7,0,0,852,0,213,0,
0.4767,184.5,174.6,-142.2,-60.6,64.5,-16.8,117.9,0,0,858,0,214,0,
0.4800,189.3,189.9,-135.9,-41.7,66.0,-15.3,124.2,0,0,864,0,215,0,
0.4833,189.9,173.1,-148.8,-51.3,60.9,-19.8,123.9,0,0,870,0,216,0,
0.4867,200.7,147.3,-166.8,-79.2,48.3,-27.9,102.3,0,0,876,0,217,0,
0.4900,198.9,153.3,-158.7,-80.7,53.7,-19.2,108.3,0,0,882,0,218,0,
0.4933,192.9,169.8,-144.0,-63.6,60.0,-15.9,117.3,0,0,888,0,219,0,
0.4967,187.5,183.9,-141.6,-46.8,62.1,-19.2,124.8,0,0,894,0,220,0,
0.5000,189.0,163.2,-149.1,-58.5,55.8,-28.5,117.3,0,0,900,0,221,0,
0.5033,182.7,173.1,-149.4,-74.4,53.7,-30.0,113.7,0,0,906,0,222,0,
0.5067,191.7,154.2,-158.1,-80.4,54.3,-26.7,106.5,0,0,912,0,223,0,
0.5100,188.4,156.0,-149.1,-70.5,56.1,-20.7,118.2,0,0,918,0,224,0,
0.5133,194.1,192.3,-132.0,-40.8,66.9,-15.0,128.4,0,0,924,0,225,0,
0.5167,195.3,177.6,-142.5,-54.0,61.5,-26.4,123.9,0,0,930,0,226,0,
0.5200,201.0,168.6,-147.6,-75.0,61.5,-22.5,110.4,0,0,936,0,227,0,
0.5233,195.6,153.6,-158.1,-77.1,60.6,-27.9,111.0,0,0,942,0,228,0,
0.5267,202.8,166.5,-145.5,-64.2,63.6,-23.1,121.5,0,0,948,0,229,0,
0.5300,191.7,193.8,-134.1,-39.0,67.5,-18.9,127.8,0,0,954,0,230,0,
0.5333,193.5,172.5,-143.4,-52.2,64.2,-18.9,124.2,0,0,960,0,231,0,
0.5367,200.1,148.8,-159.9,-78.0,54.9,-31.5,104.1,0,0,966,0,232,0,
0.5400,198.9,146.1,-162.9,-82.2,54.9,-28.2,106.8,0,0,972,0,233,0,
0.5433,186.3,175.5,-147.0,-66.6,58.8,-26.1,109.2,0,0,978,0,234,0,
0.5467,174.9,176.4,-142.8,-42.6,65.7,-25.2,113.1,0,0,984,0,235,0,
0.5500,180.6,172.2,-151.5,-55.5,57.9,-28.8,108.0,0,0,990,0,236,0,
0.5533,189.9,135.3,-169.8,-78.3,54.3,-25.2,106.5,0,0,996,0,237,0,
0.5567,198.6,156.0,-153.9,-76.5,54.0,-24.9,103.5,0,0,1002,0,238,0,
0.5600,200.7,165.0,-151.2,-63.9,62.1,-24.0,113.7,0,0,1008,0,239,0,
0.5633,191.7,181.8,-133.5,-40.8,66.6,-23.1,114.3,0,0,1014,0,240,0,
0.5667,186.9,161.1,-157.2,-59.7,62.1,-23.7,102.9,0,0,1020,0,241,0,
0.5700,192.6,146.7,-165.9,-78.3,52.2,-33.6,99.0,0,0,1026,0,242,0,
0.5733,196.5,149.1,-160.5,-76.5,55.2,-27.3,97.8,0,0,1032,0,243,0,
0.5767,186.0,162.0,-152.1,-65.4,58.2,-25.8,110.4,0,0,1038,0,244,0,
0.5800,195.3,189.3,-132.9,-38.4,66.0,-16.8,126.6,0,0,1044,0,245,0,
0.5833,202.5,168.9,-143.4,-52.5,59.4,-24.6,117.6,0,0,1050,0,246,0,
0.5867,200.7,180.9,-148.5,-76.2,50.7,-30.0,105.3,0,0,1056,0,247,0,
0.5900,203.1,143.7,-161.4,-81.3,53.7,-23.7,103.5,0,0,1062,0,248,0,
0.5933,197.7,198.9,-141.9,-62.4,56.1,-22.8,117.0,0,0,1068,0,249,0,
0.5967,197.4,191.7,-129.9,-42.9,63.3,-21.9,131.4,0,0,1074,0,250,0,
0.6000,198.3,157.8,-149.7,-60.6,59.7,-26.7,115.5,0,0,1080,0,251,0,
0.6033,197.7,148.5,-161.4,-84.9,54.3,-23.4,109.8,0,0,1086,0,252,0,
0.6067,204.0,151.5,-157.2,-84.0,48.0,-36.3,105.0,0,0,1092,0,253,0,
0.6100,201.0,161.7,-155.4,-70.2,50.1,-29.1,104.7,0,0,1098,0,254,0,
0.6133,190.2,185.1,-131.7,-43.2,58.8,-30.6,115.2,0,0,1104,0,255,0,
0.6167,199.5,159.3,-159.3,-58.2,53.4,-30.0,108.9,0,0,1110,0,0,0,
0.6200,193.8,154.5,-164.1,-80.4,45.3,-37.5,102.0,0,0,1116,0,1,0,
0.6233,202.8,150.0,-159.6,-78.3,50.4,-31.2,97.2,0,0,1122,0,2,0,
0.6267,192.3,159.9,-155.1,-66.6,50.1,-33.6,101.1,0,0,1128,0,3,0,
0.6300,181.8,177.9,-148.5,-52.2,57.3,-29.1,108.3,0,0,1134,0,4,0,
0.6333,192.6,163.8,-163.8,-65.4,50.4,-42.9,94.5,0,0,1140,0,5,0,
0.6367,188.7,142.5,-172.5,-84.6,47.1,-42.0,85.5,0,0,1146,0,6,0,
0.6400,189.3,129.9,-173.4,-85.8,48.3,-34.8,88.8,0,0,1152,0,7,0,
0.6433,182.7,145.2,-165.6,-69.6,55.5,-39.0,102.0,0,0,1158,0,8,0,
0.6467,177.0,171.3,-150.3,-54.9,60.6,-35.4,114.6,0,0,1164,0,9,0,
0.6500,181.5,147.6,-164.1,-63.9,57.0,-40.8,100.5,0,0,1170,0,10,0,
0.6533,178.8,120.9,-176.7,-86.7,47.7,-47.4,81.3,0,0,1176,0,11,0,
0.6567,185.1,133.2,-172.5,-85.2,47.4,-46.2,75.0,0,0,1182,0,12,0,
0.6600,185.7,140.1,-168.6,-76.2,52.5,-40.5,91.8,0,0,1188,0,13,0,
0.6633,179.4,165.0,-155.4,-54.3,58.8,-36.6,97.2,0,0,1194,0,14,0,
0.6667,184.2,148.2,-167.1,-65.1,57.3,-41.1,102.0,0,0,1200,0,15,0,
0.6700,197.4,136.2,-174.6,-84.3,51.9,-37.5,85.8,0,0,1206,0,16,0,
0.6733,202.5,131.1,-171.9,-80.1,51.6,-37.8,90.6,0,0,1212,0,17,0,
0.6767,194.7,149.7,-159.0,-65.4,54.6,-36.9,98.4,0,0,1218,0,18,0,
0.6800,189.3,176.4,-145.2,-40.5,67.8,-28.8,106.5,0,0,1224,0,19,0,
0.6833,192.6,152.1,-158.4,-55.8,58.2,-35.7,92.7,0,0,1230,0,20,0,
0.6867,192.0,147.3,-167.1,-78.0,52.2,-37.2,90.9,0,0,1236,0,21,0,
0.6900,194.1,143.4,-162.0,-79.8,48.9,-35.7,82.8,0,0,1242,0,22,0,
0.6933,184.2,147.3,-164.4,-68.1,55.8,-36.0,86.4,0,0,1248,0,23,0,
0.6967,173.7,151.8,-152.7,-46.5,57.6,-39.0,92.4,0,0,1254,0,24,0,
0.7000,168.3,143.7,-166.8,-63.6,49.5,-45.0,82.8,0,0,1260,0,25,0,
0.7033,169.5,139.8,-168.6,-78.9,42.6,-48.6,82.8,0,0,1266,0,26,0,
0.7067,175.5,152.4,-172.2,-86.1,44.1,-43.2,77.1,0,0,1272,0,27,0,
0.7100,171.9,135.6,-168.9,-78.0,46.5,-42.9,85.5,0,0,1278,0,28,0,
0.7133,160.8,156.6,-160.5,-59.7,52.2,-41.4,95.1,0,0,1284,0,29,0,
0.7167,168.6,148.2,-171.0,-71.4,43.2,-48.3,90.0,0,0,1290,0,30,0,
0.7200,171.9,127.5,-181.5,-88.8,44.4,-41.7,77.4,0,0,1296,0,31,0,
0.7233,159.6,131.7,-178.5,-88.8,41.4,-47.4,80.4,0,0,1302,0,32,0,
0.7267,161.1,133.2,-174.0,-82.2,48.3,-41.7,81.9,0,0,1308,0,33,0,
0.7300,152.4,155.1,-164.4,-60.3,53.4,-37.5,94.5,0,0,1314,0,34,0,
0.7333,176.7,151.8,-171.0,-69.6,48.0,-41.1,88.5,0,0,1320,0,35,0,
0.7367,165.6,145.5,-170.1,-87.9,42.9,-43.5,83.4,0,0,1326,0,36,0,
0.7400,168.6,139.5,-179.7,-88.8,47.4,-42.3,78.6,0,0,1332,0,37,0,
0.7433,161.4,156.3,-163.2,-74.4,50.7,-41.1,86.4,0,0,1338,0,38,0,
0.7467,170.7,165.0,-162.0,-59.1,58.2,-39.9,93.6,0,0,1344,0,39,0,
0.7500,174.0,151.2,-165.9,-68.7,56.4,-34.2,92.1,0,0,1350,0,40,0,
0.7533,170.7,155.4,-167.4,-83.1,48.9,-36.9,87.9,0,0,1356,0,41,0,
0.7567,180.3,142.8,-163.2,-81.3,47.1,-37.2,96.0,0,0,1362,0,42,0,
0.7600,178.5,161.4,-157.2,-72.6,55.8,-33.3,96.9,0,0,1368,0,43,0,
0.7633,165.9,170.4,-153.9,-60.6,54.0,-30.0,99.9,0,0,1374,0,44,0,
0.7667,165.0,153.0,-161.7,-71.1,46.2,-39.3,95.1,0,0,1380,0,45,0,
0.7700,172.8,129.9,-170.1,-95.4,40.2,-42.9,84.0,0,0,1386,0,46,0,
0.7733,172.2,144.6,-168.0,-91.5,44.1,-36.9,88.8,0,0,1392,0,47,0,
0.7767,174.0,144.6,-164.4,-78.0,46.5,-37.5,81.0,0,0,1398,0,48,0,
0.7800,161.7,167.7,-154.8,-58.5,47.1,-47.7,89.1,0,0,1404,0,49,0,
0.7833,169.5,150.3,-161.4,-66.9,48.6,-42.0,80.1,0,0,1410,0,50,0,
0.7867,171.3,146.1,-167.4,-81.9,42.6,-46.2,73.2,0,0,1416,0,51,0,
0.7900,179.7,138.6,-171.3,-88.5,42.0,-45.3,73.8,0,0,1422,0,52,0,
0.7933,166.5,153.0,-156.0,-75.9,43.2,-39.9,85.5,0,0,1428,0,53,0,
0.7967,169.2,171.9,-154.5,-58.8,55.8,-33.9,98.4,0,0,1434,0,54,0,
0.8000,167.7,152.1,-162.6,-72.3,45.3,-44.7,82.5,0,0,1440,0,55,0,
0.8033,176.1,130.2,-176.1,-93.3,43.2,-44.1,81.3,0,0,1446,0,56,0,
0.8067,165.3,138.0,-166.2,-92.1,45.6,-38.1,84.3,0,0,1452,0,57,0,
0.8100,166.8,141.0,-168.0,-81.3,45.0,-43.8,84.0,0,0,1458,0,58,0,
0.8133,159.9,165.9,-150.0,-59.1,54.3,-37.5,98.1,0,0,1464,0,59,0,
0.8167,162.0,145.5,-173.4,-75.0,47.1,-37.8,84.6,0,0,1470,0,60,0,
0.8200,162.9,143.4,-172.8,-87.9,42.0,-48.0,76.5,0,0,1476,0,61,0,
0.8233,177.9,129.9,-172.8,-89.1,42.0,-43.8,84.6,0,0,1482,0,62,0,
0.8267,164.4,156.0,-157.8,-76.8,45.6,-42.9,76.2,0,0,1488,0,63,0,
0.8300,162.9,153.6,-160.2,-59.1,47.7,-41.7,92.1,0,0,1494,0,64,0,
0.8333,166.8,159.9,-156.9,-66.6,45.3,-41.7,87.9,0,0,1500,0,65,0,
0.8367,183.0,147.9,-164.4,-82.5,40.2,-39.6,85.8,0,0,1506,0,66,0,
0.8400,193.5,134.4,-168.9,-85.5,43.2,-36.9,87.0,0,0,1512,0,67,0,
0.8433,187.5,156.6,-152.4,-65.1,50.4,-32.7,99.3,0,0,1518,0,68,0,
0.8467,182.7,181.5,-136.2,-39.9,56.7,-28.5,109.5,0,0,1524,0,69,0,
0.8500,184.8,163.2,-153.9,-59.1,47.1,-35.4,94.5,0,0,1530,0,70,0,
0.8533,189.0,147.6,-171.6,-84.3,44.7,-30.6,86.4,0,0,1536,0,71,0,
0.8567,173.1,144.9,-164.4,-87.9,48.6,-37.5,88.8,0,0,1542,0,72,0,
0.8600,176.7,150.3,-159.6,-70.5,51.0,-39.3,86.4,0,0,1548,0,73,0,
0.8633,172.2,178.2,-148.2,-48.6,60.6,-30.6,111.0,0,0,1554,0,74,0,
0.8667,172.5,172.2,-153.6,-62.4,55.8,-35.1,105.0,0,0,1560,0,75,0,
0.8700,173.4,140.4,-168.9,-91.5,45.0,-49.5,80.7,0,0,1566,0,76,0,
0.8733,173.1,125.1,-169.5,-93.0,44.4,-49.8,78.9,0,0,1572,0,77,0,
0.8767,159.9,146.1,-156.3,-77.7,51.9,-42.3,87.9,0,0,1578,0,78,0,
0.8800,168.3,156.6,-151.5,-59.4,56.7,-36.3,99.6,0,0,1584,0,79,0,
0.8833,172.5,147.6,-156.6,-65.7,52.5,-41.7,91.5,0,0,1590,0,80,0,
0.8867,176.7,131.4,-170.4,-90.0,46.8,-42.6,90.9,0,0,1596,0,81,0,
0.8900,167.4,137.7,-161.4,-88.5,46.2,-43.8,81.9,0,0,1602,0,82,0,
0.8933,172.5,158.1,-156.0,-75.3,55.5,-32.7,92.4,0,0,1608,0,83,0,
0.8967,162.6,170.7,-138.3,-50.1,58.2,-37.5,97.5,0,0,1614,0,84,0,
0.9000,172.2,157.5,-154.5,-66.0,53.1,-45.3,93.0,0,0,1620,0,85,0,
0.9033,171.9,145.2,-160.2,-84.6,52.2,-37.8,84.9,0,0,1626,0,86,0,
0.9067,165.9,143.1,-165.0,-87.3,52.8,-39.0,87.6,0,0,1632,0,87,0,
0.9100,177.6,165.6,-150.9,-69.3,53.1,-40.5,99.9,0,0,1638,0,88,0,
0.9133,172.5,171.0,-142.8,-45.6,58.8,-35.1,116.7,0,0,1644,0,89,0,
0.9167,166.8,159.3,-146.1,-61.2,53.1,-41.1,106.2,0,0,1650,0,90,0,
0.9200,181.5,137.7,-159.0,-80.4,52.8,-38.1,94.2,0,0,1656,0,91,0,
0.9233,179.1,145.8,-155.7,-83.4,49.2,-37.2,90.0,0,0,1662,0,92,0,
0.9267,158.7,154.8,-150.3,-71.7,53.7,-40.5,90.3,0,0,1668,0,93,0,
0.9300,162.3,152.1,-147.6,-52.2,58.8,-39.0,101.4,0,0,1674,0,94,0,
0.9333,165.9,141.3,-160.8,-65.4,54.3,-40.8,93.0,0,0,1680,0,95,0,
0.9367,165.0,129.6,-164.1,-82.8,48.0,-43.2,85.8,0,0,1686,0,96,0,
0.9400,166.8,151.8,-163.2,-84.6,53.1,-39.6,89.7,0,0,1692,0,97,0,
0.9433,176.1,153.9,-150.0,-72.0,53.1,-36.6,96.0,0,0,1698,0,98,0,
0.9467,170.7,156.6,-153.0,-51.9,60.3,-34.2,98.4,0,0,1704,0,99,0,
0.9500,171.3,147.6,-153.3,-62.1,49.5,-50.4,91.8,0,0,1710,0,100,0,
0.9533,177.3,128.1,-165.6,-82.8,46.8,-42.9,83.7,0,0,1716,0,101,0,
0.9567,184.5,132.9,-161.4,-81.9,50.7,-39.9,92.4,0,0,1722,0,102,0,
0.9600,180.9,141.0,-155.7,-73.8,54.9,-38.4,102.9,0,0,1728,0,103,0,
0.9633,172.2,153.3,-153.6,-53.4,59.1,-34.8,109.2,0,0,1734,0,104,0,
0.9667,169.8,150.3,-156.6,-62.4,59.7,-32.7,103.2,0,0,1740,0,105,0,
0.9700,175.2,126.0,-167.1,-85.8,48.6,-50.1,87.3,0,0,1746,0,106,0,
0.9733,176.7,143.7,-166.8,-86.4,52.2,-42.3,96.0,0,0,1752,0,107,0,
0.9767,173.4,151.2,-156.9,-72.6,57.0,-38.1,99.9,0,0,1758,0,108,0,
0.9800,165.0,149.1,-148.8,-53.7,58.5,-41.4,100.2,0,0,1764,0,109,0,
0.9833,171.0,140.1,-164.7,-67.8,50.7,-46.5,96.6,0,0,1770,0,110,0,
0.9867,173.1,122.1,-176.1,-92.4,41.7,-47.1,83.7,0,0,1776,0,111,0,
0.9900,176.4,132.6,-168.9,-89.7,47.1,-46.8,86.1,0,0,1782,0,112,0,
0.9933,168.6,151.2,-161.4,-75.3,53.1,-42.9,96.0,0,0,1788,0,113,0,
0.9967,165.9,180.9,-147.3,-47.1,59.1,-39.0,110.4,0,0,1794,0,114,0,
1.0000,172.8,147.6,-156.6,-66.3,52.8,-42.3,101.4,0,0,1800,0,115,0,
1.0033,176.4,123.3,-172.5,-85.2,48.9,-43.8,94.5,0,0,1806,0,116,0,
1.0067,173.1,132.9,-165.0,-84.9,45.6,-42.0,90.6,0,0,1812,0,117,0,
1.0100,160.8,142.2,-168.9,-75.9,45.3,-48.9,88.5,0,0,1818,0,118,0,
1.0133,160.2,147.0,-155.1,-51.3,48.9,-45.0,87.3,0,0,1824,0,119,0,
1.0167,166.2,139.5,-165.3,-66.9,44.1,-48.3,95.1,0,0,1830,0,120,0,
1.0200,178.8,132.9,-164.1,-87.6,44.4,-44.7,87.3,0,0,1836,0,121,0,
1.0233,166.2,132.0,-165.9,-85.2,41.7,-50.7,76.2,0,0,1842,0,122,0,
1.0267,165.0,153.3,-156.3,-70.5,48.6,-42.3,87.0,0,0,1848,0,123,0,
1.0300,173.1,172.8,-143.4,-48.9,57.3,-38.7,99.6,0,0,1854,0,124,0,
1.0333,176.4,141.6,-160.5,-59.7,50.4,-47.1,94.2,0,0,1860,0,125,0,
1.0367,171.9,129.9,-169.8,-83.7,44.7,-51.9,83.4,0,0,1866,0,126,0,
1.0400,174.3,127.2,-166.5,-84.6,50.1,-44.1,90.9,0,0,1872,0,127,0,
1.0433,176.1,143.1,-153.3,-68.4,55.5,-39.3,102.6,0,0,1878,0,128,0,
1.0467,176.1,163.5,-146.1,-47.4,60.6,-32.1,112.8,0,0,1884,0,129,0,
1.0500,177.9,148.8,-153.6,-60.6,54.0,-44.4,94.8,0,0,1890,0,130,0,
1.0533,184.8,136.2,-168.3,-85.8,52.2,-40.8,96.3,0,0,1896,0,131,0,
1.0567,171.9,143.4,-155.4,-78.6,48.3,-45.3,82.2,0,0,1902,0,132,0,
1.0600,175.2,155.7,-156.0,-69.6,55.5,-39.9,98.1,0,0,1908,0,133,0,
1.0633,160.8,171.0,-153.9,-54.0,60.9,-37.8,104.7,0,0,1914,0,134,0,
1.0667,169.2,140.4,-163.8,-67.5,57.6,-39.9,102.3,0,0,1920,0,135,0,
1.0700,176.7,126.9,-172.5,-87.0,49.5,-48.6,88.8,0,0,1926,0,136,0,
1.0733,168.0,138.3,-168.6,-85.5,48.9,-43.8,101.1,0,0,1932,0,137,0,
1.0767,170.1,156.3,-156.9,-71.7,50.4,-43.8,103.2,0,0,1938,0,138,0,
1.0800,171.6,183.9,-141.9,-50.7,56.4,-33.3,119.4,0,0,1944,0,139,0,
1.0833,179.7,149.4,-155.1,-63.0,53.7,-35.4,109.5,0,0,1950,0,140,0,
1.0867,176.1,134.1,-165.0,-85.2,47.1,-39.9,92.4,0,0,1956,0,141,0,
1.0900,164.7,131.4,-172.2,-88.8,47.4,-44.7,85.8,0,0,1962,0,142,0,
1.0933,162.0,156.9,-158.4,-72.9,47.7,-41.1,101.7,0,0,1968,0,143,0,
1.0967,154.2,174.0,-147.9,-48.0,51.3,-39.6,102.9,0,0,1974,0,144,0,
1.1000,172.8,156.0,-166.5,-70.2,49.5,-41.7,104.7,0,0,1980,0,145,0,
1.1033,174.9,137.4,-174.3,-85.8,43.2,-43.5,93.6,0,0,1986,0,146,0,
1.1067,182.1,130.2,-167.4,-81.9,47.4,-41.1,93.6,0,0,1992,0,147,0,
1.1100,176.7,148.8,-158.4,-70.5,49.5,-39.9,94.2,0,0,1998,0,148,0,
1.1133,170.1,162.0,-151.8,-48.3,55.8,-38.4,102.3,0,0,2004,0,149,0,
1.1167,168.3,149.4,-163.5,-63.3,50.1,-46.5,97.2,0,0,2010,0,150,0,
1.1200,171.6,145.8,-165.0,-80.7,48.0,-42.6,89.1,0,0,2016,0,151,0,
1.1233,174.3,133.2,-163.5,-81.9,49.5,-36.3,86.4,0,0,2022,0,152,0,
1.1267,171.3,162.9,-150.9,-63.3,54.6,-38.1,90.3,0,0,2028,0,153,0,
1.1300,168.3,164.7,-147.9,-43.8,57.9,-38.1,97.8,0,0,2034,0,154,0,
1.1333,166.8,166.2,-159.0,-61.5,58.8,-35.4,97.5,0,0,2040,0,155,0,
1.1367,174.3,123.3,-164.1,-79.2,53.7,-33.0,84.3,0,0,2046,0,156,0,
1.1400,169.2,133.5,-168.9,-81.0,48.0,-45.0,87.6,0,0,2052,0,157,0,
1.1433,167.4,149.1,-158.4,-67.5,48.3,-47.1,89.7,0,0,2058,0,158,0,
1.1467,157.2,164.1,-155.7,-46.5,52.5,-44.1,98.7,0,0,2064,0,159,0,
1.1500,164.4,156.3,-157.8,-61.5,46.2,-41.1,94.5,0,0,2070,0,160,0,
1.1533,162.6,132.9,-171.6,-85.8,36.3,-47.7,72.0,0,0,2076,0,161,0,
1.1567,141.0,129.6,-165.3,-80.4,34.2,-56.1,62.4,0,0,2082,0,162,0,
1.1600,150.3,123.6,-171.9,-69.6,42.9,-56.7,68.4,0,0,2088,0,163,0,
1.1633,153.6,164.4,-153.9,-48.6,51.6,-38.7,100.2,0,0,2094,0,164,0,
1.1667,171.6,147.3,-165.3,-62.4,47.7,-34.5,107.4,0,0,2100,0,165,0,
1.1700,157.8,128.7,-178.8,-84.6,36.6,-46.2,87.3,0,0,2106,0,166,0,
1.1733,152.4,146.7,-167.7,-84.9,42.6,-39.9,89.4,0,0,2112,0,167,0,
1.1767,165.3,159.0,-155.1,-65.1,49.8,-28.8,110.7,0,0,2118,0,168,0,
1.1800,149.4,175.5,-155.1,-45.6,53.7,-27.0,118.2,0,0,2124,0,169,0,
1.1833,150.9,154.2,-165.6,-63.3,44.1,-36.9,95.7,0,0,2130,0,170,0,
1.1867,150.0,130.2,-176.7,-84.6,38.1,-38.1,92.7,0,0,2136,0,171,0,
1.1900,155.4,143.1,-171.9,-84.0,45.3,-31.5,101.7,0,0,2142,0,172,0,
1.1933,145.2,160.5,-158.7,-66.3,50.1,-31.8,112.2,0,0,2148,0,173,0,
1.1967,135.3,181.2,-148.8,-45.6,50.7,-38.1,112.5,0,0,2154,0,174,0,
1.2000,140.1,167.7,-170.4,-68.4,42.0,-39.6,100.8,0,0,2160,0,175,0,
1.2033,145.8,124.2,-180.3,-87.6,39.6,-47.4,89.4,0,0,2166,0,176,0,
1.2067,151.5,133.8,-173.7,-83.1,41.7,-41.7,95.4,0,0,2172,0,177,0,
1.2100,144.9,152.1,-158.7,-64.2,48.3,-37.2,97.8,0,0,2178,0,178,0,
1.2133,144.3,176.1,-148.5,-42.3,53.4,-30.0,113.1,0,0,2184,0,179,0,
1.2167,150.0,165.9,-159.9,-61.5,48.3,-33.0,103.2,0,0,2190,0,180,0,
1.2200,154.8,137.1,-168.9,-85.8,43.8,-33.3,90.6,0,0,2196,0,181,0,
1.2233,153.0,152.7,-163.2,-81.6,47.7,-33.0,100.5,0,0,2202,0,182,0,
1.2267,152.4,160.2,-151.5,-64.8,51.3,-31.8,103.8,0,0,2208,0,183,0,
1.2300,150.6,184.5,-149.4,-46.2,55.5,-29.7,109.8,0,0,2214,0,184,0,
1.2333,151.5,164.4,-160.8,-64.5,45.9,-33.6,98.7,0,0,2220,0,185,0,
1.2367,157.5,148.8,-169.2,-85.8,45.0,-33.3,103.2,0,0,2226,0,186,0,
1.2400,149.7,144.6,-167.4,-90.3,45.3,-34.5,106.5,0,0,2232,0,187,0,
1.2433,158.1,153.0,-154.5,-66.6,50.1,-31.5,106.5,0,0,2238,0,188,0,
1.2467,153.0,190.5,-140.4,-39.0,59.7,-24.0,120.6,0,0,2244,0,189,0,
1.2500,168.0,170.7,-156.6,-65.4,53.1,-28.5,110.1,0,0,2250,0,190,0,
1.2533,164.4,145.5,-164.1,-87.6,44.7,-35.4,102.9,0,0,2256,0,191,0,
1.2567,167.4,141.6,-168.9,-91.2,45.9,-37.2,102.6,0,0,2262,0,192,0,
1.2600,156.0,171.0,-150.9,-68.7,46.2,-35.4,108.0,0,0,2268,0,193,0,
1.2633,150.9,169.8,-150.9,-48.0,51.6,-34.2,116.1,0,0,2274,0,194,0,
1.2667,154.2,158.7,-163.8,-66.6,46.2,-43.2,105.0,0,0,2280,0,195,0,
1.2700,157.5,129.0,-180.6,-95.4,38.4,-48.9,90.6,0,0,2286,0,196,0,
1.2733,156.9,142.2,-166.8,-89.4,41.7,-45.0,96.3,0,0,2292,0,197,0,
1.2767,152.4,161.1,-162.3,-73.2,48.9,-42.9,98.7,0,0,2298,0,198,0,
1.2800,139.5,184.8,-152.7,-46.2,55.5,-39.0,103.2,0,0,2304,0,199,0,
1.2833,152.7,141.6,-175.2,-69.9,46.8,-42.6,94.8,0,0,2310,0,200,0,
1.2867,156.0,134.1,-179.1,-93.9,39.3,-45.6,90.9,0,0,2316,0,201,0,
1.2900,154.5,130.8,-179.1,-92.4,41.1,-43.8,83.1,0,0,2322,0,202,0,
1.2933,138.6,151.8,-164.1,-70.2,47.4,-41.4,89.1,0,0,2328,0,203,0,
1.2967,146.4,159.9,-162.6,-43.2,55.2,-39.9,98.1,0,0,2334,0,204,0,
1.3000,151.8,152.1,-172.5,-66.0,49.2,-43.5,98.4,0,0,2340,0,205,0,
1.3033,156.6,126.6,-179.1,-90.6,43.8,-48.3,77.7,0,0,2346,0,206,0,
1.3067,150.6,136.8,-170.4,-87.9,44.1,-47.7,84.9,0,0,2352,0,207,0,
1.3100,149.7,161.1,-157.5,-69.3,54.3,-36.6,102.0,0,0,2358,0,208,0,
1.3133,156.9,186.0,-140.7,-43.5,60.6,-29.4,116.4,0,0,2364,0,209,0,
1.3167,161.7,165.6,-152.7,-60.0,53.4,-36.6,110.4,0,0,2370,0,210,0,
1.3200,174.0,142.2,-166.5,-82.8,45.3,-42.6,98.1,0,0,2376,0,211,0,
1.3233,170.1,145.2,-161.4,-79.8,46.5,-37.5,102.3,0,0,2382,0,212,0,
1.3267,159.0,164.4,-141.0,-56.1,55.2,-33.9,112.8,0,0,2388,0,213,0,
1.3300,156.0,214.5,-130.8,-32.1,60.9,-32.1,121.8,0,0,2394,0,214,0,
1.3333,172.2,158.1,-158.1,-57.3,55.8,-33.6,114.9,0,0,2400,0,215,0,
1.3367,169.5,142.8,-166.8,-81.9,47.4,-36.6,100.5,0,0,2406,0,216,0,
1.3400,172.2,152.1,-163.8,-79.8,56.1,-30.6,104.1,0,0,2412,0,217,0,
1.3433,160.8,166.5,-152.4,-62.1,59.7,-27.0,110.1,0,0,2418,0,218,0,
1.3467,161.4,190.5,-140.1,-34.8,67.5,-24.3,122.7,0,0,2424,0,219,0,
1.3500,162.9,167.1,-159.9,-63.3,58.8,-26.7,111.3,0,0,2430,0,220,0,
1.3533,172.5,142.2,-172.8,-84.6,51.3,-37.5,96.3,0,0,2436,0,221,0,
1.3567,162.9,148.2,-168.6,-82.8,49.2,-35.7,97.8,0,0,2442,0,222,0,
1.3600,156.9,164.7,-160.8,-66.9,54.6,-36.0,108.0,0,0,2448,0,223,0,
1.3633,153.3,180.3,-149.4,-40.2,59.4,-33.9,114.3,0,0,2454,0,224,0,
1.3667,163.8,168.3,-160.8,-60.0,52.2,-33.3,113.4,0,0,2460,0,225,0,
1.3700,164.7,126.6,-179.4,-89.7,50.4,-34.5,101.7,0,0,2466,0,226,0,
1.3733,162.6,137.4,-168.3,-85.2,49.5,-34.8,100.8,0,0,2472,0,227,0,
1.3767,156.3,156.6,-160.8,-69.6,54.9,-31.5,111.0,0,0,2478,0,228,0,
1.3800,152.7,194.1,-147.3,-46.2,59.4,-31.5,118.2,0,0,2484,0,229,0,
1.3833,152.1,165.0,-155.1,-66.3,54.6,-32.1,107.4,0,0,2490,0,230,0,
1.3867,168.0,133.2,-180.3,-91.2,45.6,-40.5,96.9,0,0,2496,0,231,0,
1.3900,160.2,129.3,-175.5,-92.1,45.3,-38.1,94.2,0,0,2502,0,232,0,
1.3933,147.0,152.7,-160.8,-72.6,49.8,-36.9,103.5,0,0,2508,0,233,0,
1.3967,151.2,159.9,-156.6,-53.1,57.9,-33.3,114.3,0,0,2514,0,234,0,
1.4000,150.0,148.8,-167.1,-69.0,53.1,-39.9,98.1,0,0,2520,0,235,0,
1.4033,143.4,108.3,-186.3,-99.6,47.1,-41.7,85.5,0,0,2526,0,236,0,
1.4067,144.9,120.6,-178.2,-89.4,48.3,-37.8,84.0,0,0,2532,0,237,0,
1.4100,161.1,156.0,-164.1,-72.3,57.0,-28.5,104.7,0,0,2538,0,238,0,
1.4133,163.5,178.5,-148.8,-46.5,61.5,-26.7,117.0,0,0,2544,0,239,0,
1.4167,164.4,158.4,-158.4,-63.9,52.8,-36.6,102.3,0,0,2550,0,240,0,
1.4200,168.6,139.2,-168.6,-84.9,47.4,-40.2,96.6,0,0,2556,0,241,0,
1.4233,169.8,143.1,-162.3,-83.7,49.2,-37.8,102.9,0,0,2562,0,242,0,
1.4267,174.9,165.9,-152.7,-72.6,54.0,-33.6,102.9,0,0,2568,0,243,0,
1.4300,171.9,173.4,-142.5,-52.5,59.1,-36.6,111.3,0,0,2574,0,244,0,
1.4333,161.1,144.0,-171.9,-73.5,52.5,-42.3,93.6,0,0,2580,0,245,0,
1.4367,181.8,127.5,-176.4,-94.2,52.8,-41.4,91.5,0,0,2586,0,246,0,
1.4400,197.7,140.7,-164.1,-87.3,49.5,-33.9,103.8,0,0,2592,0,247,0,
1.4433,186.0,165.3,-152.1,-69.6,57.9,-29.4,114.9,0,0,2598,0,248,0,
1.4467,193.8,180.6,-144.9,-42.6,63.6,-24.9,125.7,0,0,2604,0,249,0,
1.4500,198.6,168.0,-151.8,-62.1,53.7,-29.7,117.6,0,0,2610,0,250,0,
1.4533,195.3,156.3,-164.7,-84.6,46.8,-37.2,98.4,0,0,2616,0,251,0,
1.4567,198.3,146.4,-156.6,-78.0,54.3,-27.9,104.7,0,0,2622,0,252,0,
1.4600,195.6,153.0,-154.8,-67.2,59.1,-24.0,109.8,0,0,2628,0,253,0,
1.4633,194.4,169.8,-143.1,-41.4,62.1,-24.0,117.9,0,0,2634,0,254,0,
1.4667,197.7,153.9,-153.0,-59.4,57.0,-29.7,104.7,0,0,2640,0,255,0,
1.4700,193.8,144.6,-170.7,-91.2,48.0,-40.5,98.4,0,0,2646,0,0,0,
1.4733,189.6,142.2,-159.9,-83.1,51.9,-34.2,98.1,0,0,2652,0,1,0,
1.4767,190.2,141.6,-163.8,-72.0,57.0,-35.1,102.9,0,0,2658,0,2,0,
1.4800,183.9,160.5,-155.4,-57.3,57.0,-36.0,107.1,0,0,2664,0,3,0,
1.4833,184.5,146.7,-163.8,-74.1,51.0,-39.0,95.7,0,0,2670,0,4,0,
1.4867,185.1,126.6,-172.2,-96.3,46.5,-39.0,84.6,0,0,2676,0,5,0,
1.4900,185.4,129.6,-171.6,-98.7,41.7,-45.3,79.8,0,0,2682,0,6,0,
1.4933,177.9,136.5,-167.4,-80.1,48.3,-44.7,90.3,0,0,2688,0,7,0,
1.4967,174.6,150.3,-161.4,-58.5,55.2,-39.6,91.2,0,0,2694,0,8,0,
1.5000,171.0,132.0,-168.3,-77.7,44.7,-51.9,77.4,0,0,2700,0,9,0,
1.5033,181.5,114.3,-186.9,-102.0,40.8,-50.7,69.3,0,0,2706,0,10,0,
1.5067,183.3,115.2,-188.1,-103.5,40.8,-51.9,69.9,0,0,2712,0,11,0,
1.5100,167.1,124.5,-176.7,-86.7,42.3,-52.5,74.4,0,0,2718,0,12,0,
1.5133,168.3,141.9,-168.9,-64.2,49.2,-52.5,85.8,0,0,2724,0,13,0,
1.5167,178.2,128.7,-177.3,-80.4,40.8,-52.5,80.4,0,0,2730,0,14,0,
1.5200,178.5,116.7,-185.7,-96.9,39.0,-51.0,73.5,0,0,2736,0,15,0,
1.5233,185.4,125.4,-177.0,-93.9,48.6,-40.8,80.7,0,0,2742,0,16,0,
1.5267,170.1,138.3,-169.2,-79.8,52.2,-44.4,79.5,0,0,2748,0,17,0,
1.5300,171.0,156.0,-161.4,-63.0,55.5,-39.6,98.7,0,0,2754,0,18,0,
1.5333,193.8,158.1,-163.8,-75.0,56.1,-40.5,100.2,0,0,2760,0,19,0,
1.5367,196.2,131.7,-168.6,-86.4,52.5,-39.9,90.6,0,0,2766,0,20,0,
1.5400,191.1,144.6,-165.0,-91.5,54.3,-37.5,91.5,0,0,2772,0,21,0,
1.5433,184.5,146.7,-160.5,-75.3,55.2,-35.7,93.6,0,0,2778,0,22,0,
1.5467,182.1,168.3,-147.3,-51.9,65.7,-30.9,108.6,0,0,2784,0,23,0,
1.5500,181.8,147.6,-156.0,-66.6,51.0,-38.7,95.4,0,0,2790,0,24,0,
1.5533,192.6,128.1,-166.8,-91.5,45.3,-43.2,90.6,0,0,2796,0,25,0,
1.5567,188.4,139.8,-162.3,-91.2,43.5,-43.8,87.3,0,0,2802,0,26,0,
1.5600,189.0,163.5,-151.8,-77.7,46.8,-36.0,97.8,0,0,2808,0,27,0,
1.5633,184.8,174.9,-131.4,-52.5,50.7,-36.3,103.2,0,0,2814,0,28,0,
1.5667,193.8,158.1,-156.9,-74.4,48.6,-36.9,101.7,0,0,2820,0,29,0,
1.5700,197.7,144.6,-161.1,-92.4,43.5,-40.8,90.0,0,0,2826,0,30,0,
1.5733,193.8,141.0,-161.1,-92.4,46.5,-39.3,88.5,0,0,2832,0,31,0,
1.5767,177.0,159.0,-147.0,-71.7,49.5,-37.8,89.4,0,0,2838,0,32,0,
1.5800,186.9,180.0,-143.4,-48.0,60.0,-30.0,101.4,0,0,2844,0,33,0,
1.5833,189.0,166.2,-151.5,-72.3,52.5,-34.8,97.5,0,0,2850,0,34,0,
1.5867,195.9,145.8,-164.7,-93.0,47.1,-38.1,90.0,0,0,2856,0,35,0,
1.5900,197.7,154.2,-154.2,-90.6,45.6,-36.0,89.4,0,0,2862,0,36,0,
1.5933,196.2,169.5,-148.5,-67.8,54.9,-30.9,106.5,0,0,2868,0,37,0,
1.5967,192.0,194.4,-133.5,-42.6,66.0,-25.5,120.0,0,0,2874,0,38,0,
1.6000,200.4,171.3,-142.2,-60.9,57.3,-33.6,104.7,0,0,2880,0,39,0,
1.6033,202.5,149.7,-157.5,-88.8,51.9,-31.2,96.0,0,0,2886,0,40,0,
1.6067,196.2,150.3,-157.2,-88.2,52.5,-33.3,91.8,0,0,2892,0,41,0,
1.6100,196.2,173.1,-140.7,-69.6,57.6,-26.1,101.4,0,0,2898,0,42,0,
1.6133,193.8,186.0,-136.2,-47.7,58.5,-25.8,116.1,0,0,2904,0,43,0,
1.6167,204.3,171.6,-145.2,-61.2,57.3,-31.5,111.6,0,0,2910,0,44,0,
1.6200,205.2,145.8,-154.5,-84.6,48.9,-36.6,97.5,0,0,2916,0,45,0,
1.6233,204.9,147.3,-161.1,-86.1,49.8,-35.1,93.6,0,0,2922,0,46,0,
1.6267,189.6,169.8,-148.5,-69.6,56.4,-34.8,105.6,0,0,2928,0,47,0,
1.6300,187.5,173.1,-142.8,-48.9,60.3,-33.9,105.6,0,0,2934,0,48,0,
1.6333,180.3,150.0,-163.8,-73.8,54.6,-42.0,99.6,0,0,2940,0,49,0,
1.6367,194.7,136.5,-176.1,-96.0,43.8,-42.9,93.0,0,0,2946,0,50,0,
1.6400,197.7,136.2,-165.9,-92.7,45.3,-39.3,89.1,0,0,2952,0,51,0,
1.6433,191.7,156.9,-155.4,-76.2,48.9,-39.6,97.5,0,0,2958,0,52,0,
1.6467,189.6,174.6,-142.5,-47.4,56.4,-36.0,106.8,0,0,2964,0,53,0,
1.6500,189.3,159.0,-165.6,-74.7,45.3,-45.6,92.7,0,0,2970,0,54,0,
1.6533,204.0,138.0,-172.8,-92.1,40.5,-45.3,86.4,0,0,2976,0,55,0,
1.6567,194.4,150.6,-160.8,-86.4,46.2,-39.6,90.0,0,0,2982,0,56,0,
1.6600,190.8,148.2,-162.0,-75.9,49.5,-39.3,91.5,0,0,2988,0,57,0,
1.6633,175.2,167.7,-151.8,-53.4,53.1,-40.2,101.1,0,0,2994,0,58,0,
1.6667,187.8,157.2,-162.6,-71.4,46.5,-40.2,95.7,0,0,3000,0,59,0,
1.6700,190.2,141.0,-167.7,-95.4,40.8,-43.2,87.3,0,0,3006,0,60,0,
1.6733,200.4,145.5,-167.7,-91.5,51.3,-37.8,94.2,0,0,3012,0,61,0,
1.6767,192.9,163.8,-156.0,-74.4,54.0,-36.3,105.6,0,0,3018,0,62,0,
1.6800,181.8,181.2,-141.9,-50.4,62.4,-30.9,119.7,0,0,3024,0,63,0,
1.6833,188.4,171.0,-153.6,-70.2,54.0,-39.6,105.0,0,0,3030,0,64,0,
1.6867,191.7,141.3,-165.0,-96.0,50.7,-40.5,93.3,0,0,3036,0,65,0,
1.6900,194.1,136.5,-168.6,-92.7,48.9,-38.4,94.8,0,0,3042,0,66,0,
1.6933,183.9,154.2,-156.3,-72.3,57.0,-36.3,99.6,0,0,3048,0,67,0,
1.6967,187.2,180.6,-150.0,-50.4,64.2,-34.2,111.6,0,0,3054,0,68,0,
1.7000,193.8,158.7,-161.7,-67.8,57.6,-33.3,101.1,0,0,3060,0,69,0,
1.7033,196.5,137.4,-169.8,-93.6,50.7,-39.0,87.6,0,0,3066,0,70,0,
1.7067,191.4,139.2,-169.2,-92.7,53.7,-39.0,87.9,0,0,3072,0,71,0,
1.7100,180.6,157.8,-161.7,-75.6,54.0,-38.1,93.9,0,0,3078,0,72,0,
1.7133,178.5,172.5,-146.7,-48.0,59.4,-39.3,100.2,0,0,3084,0,73,0,
1.7167,176.7,159.6,-164.1,-68.4,48.0,-42.6,89.1,0,0,3090,0,74,0,
1.7200,184.8,134.4,-180.6,-92.4,42.0,-44.7,78.3,0,0,3096,0,75,0,
1.7233,176.4,131.1,-172.5,-90.9,42.3,-49.8,74.1,0,0,3102,0,76,0,
1.7267,180.9,149.7,-165.9,-70.2,53.4,-37.8,91.5,0,0,3108,0,77,0,
1.7300,174.3,156.9,-156.0,-52.2,53.7,-42.9,95.4,0,0,3114,0,78,0,
1.7333,176.4,148.8,-163.2,-72.0,47.1,-49.8,80.4,0,0,3120,0,79,0,
1.7367,186.6,121.8,-179.1,-97.8,42.0,-49.8,75.0,0,0,3126,0,80,0,
1.7400,192.6,133.5,-166.8,-90.6,48.3,-39.3,87.0,0,0,3132,0,81,0,
1.7433,180.3,155.1,-156.3,-73.2,52.5,-41.7,87.3,0,0,3138,0,82,0,
1.7467,176.7,174.3,-151.5,-51.0,56.1,-40.5,98.7,0,0,3144,0,83,0,
1.7500,182.1,151.8,-168.0,-72.0,47.1,-44.4,84.3,0,0,3150,0,84,0,
1.7533,183.9,131.4,-171.3,-93.6,46.2,-43.8,76.8,0,0,3156,0,85,0,
1.7567,184.5,132.0,-173.1,-90.3,43.2,-46.8,72.3,0,0,3162,0,86,0,
1.7600,175.8,142.5,-167.1,-74.1,49.2,-47.4,72.3,0,0,3168,0,87,0,
1.7633,169.2,159.6,-160.5,-53.4,54.9,-38.4,88.2,0,0,3174,0,88,0,
1.7667,184.8,146.1,-170.4,-74.4,49.8,-40.5,78.3,0,0,3180,0,89,0,
1.7700,189.0,132.6,-174.0,-95.4,42.9,-42.3,76.5,0,0,3186,0,90,0,
1.7733,185.4,127.2,-186.9,-95.4,49.2,-38.4,84.0,0,0,3192,0,91,0,
1.7767,173.4,139.2,-171.3,-70.5,55.5,-37.8,87.6,0,0,3198,0,92,0,
1.7800,180.0,165.9,-159.6,-50.7,61.5,-32.1,101.7,0,0,3204,0,93,0,
1.7833,180.6,143.4,-171.9,-73.5,48.0,-42.0,87.6,0,0,3210,0,94,0,
1.7867,188.4,118.2,-184.2,-96.0,45.3,-47.7,78.0,0,0,3216,0,95,0,
1.7900,186.0,125.4,-180.3,-95.1,43.8,-42.6,73.2,0,0,3222,0,96,0,
1.7933,179.4,150.6,-165.6,-73.5,49.5,-44.7,80.1,0,0,3228,0,97,0,
1.7967,179.4,172.2,-154.2,-47.7,56.4,-36.3,92.4,0,0,3234,0,98,0,
1.8000,189.9,156.3,-163.5,-71.1,48.3,-43.5,86.7,0,0,3240,0,99,0,
1.8033,194.7,123.0,-181.8,-91.8,42.3,-42.9,73.8,0,0,3246,0,100,0,
1.8067,190.2,116.7,-176.1,-87.3,46.8,-40.8,71.7,0,0,3252,0,101,0,
1.8100,171.9,149.7,-158.4,-66.6,47.4,-40.5,78.3,0,0,3258,0,102,0,
1.8133,171.0,154.2,-162.6,-50.4,54.3,-43.2,84.0,0,0,3264,0,103,0,
1.8167,168.9,133.5,-170.1,-72.6,47.1,-47.4,77.1,0,0,3270,0,104,0,
1.8200,176.4,107.1,-177.0,-93.0,37.2,-55.2,59.7,0,0,3276,0,105,0,
1.8233,180.9,112.5,-185.4,-93.9,43.2,-48.9,58.2,0,0,3282,0,106,0,
1.8267,171.9,133.2,-163.8,-67.5,47.1,-46.5,66.0,0,0,3288,0,107,0,
1.8300,167.7,144.0,-162.3,-49.2,55.5,-44.1,73.8,0,0,3294,0,108,0,
1.8333,170.1,127.8,-175.8,-72.3,47.7,-48.6,69.6,0,0,3300,0,109,0,
1.8367,181.5,111.9,-178.5,-95.7,44.7,-50.1,56.4,0,0,3306,0,110,0,
1.8400,171.0,102.0,-186.6,-99.3,42.0,-51.6,53.4,0,0,3312,0,111,0,
1.8433,162.3,120.3,-173.7,-78.3,45.3,-48.3,53.4,0,0,3318,0,112,0,
1.8467,159.0,144.9,-161.7,-50.1,54.0,-44.1,77.4,0,0,3324,0,113,0,
1.8500,174.6,127.8,-171.6,-77.1,51.6,-44.7,70.8,0,0,3330,0,114,0,
1.8533,177.6,109.5,-185.4,-100.2,45.0,-48.0,60.9,0,0,3336,0,115,0,
1.8567,180.6,115.8,-178.5,-94.8,46.5,-44.4,63.0,0,0,3342,0,116,0,
1.8600,174.9,129.0,-171.3,-76.2,53.1,-39.9,74.1,0,0,3348,0,117,0,
1.8633,173.1,159.9,-156.6,-48.3,59.1,-36.0,82.8,0,0,3354,0,118,0,
1.8667,182.7,128.4,-173.7,-75.0,48.0,-41.4,72.6,0,0,3360,0,119,0,
1.8700,177.0,106.8,-180.6,-101.4,39.0,-47.1,54.9,0,0,3366,0,120,0,
1.8733,174.9,116.4,-182.4,-98.1,46.2,-40.8,64.5,0,0,3372,0,121,0,
1.8767,175.2,141.3,-167.1,-75.3,55.2,-34.8,85.8,0,0,3378,0,122,0,
1.8800,173.1,156.0,-157.5,-48.9,58.2,-36.3,95.1,0,0,3384,0,123,0,
1.8833,173.1,125.7,-177.6,-77.4,48.6,-42.9,75.0,0,0,3390,0,124,0,
1.8867,175.8,101.4,-189.0,-101.4,39.6,-49.2,64.2,0,0,3396,0,125,0,
1.8900,177.3,106.2,-185.1,-97.5,41.7,-47.1,64.2,0,0,3402,0,126,0,
1.8933,164.7,138.9,-168.3,-72.3,48.6,-43.5,78.9,0,0,3408,0,127,0,
1.8967,168.6,163.5,-154.8,-39.9,55.8,-36.0,99.6,0,0,3414,0,128,0,
1.9000,177.3,133.8,-175.5,-72.0,49.5,-41.7,86.7,0,0,3420,0,129,0,
1.9033,180.0,122.4,-174.9,-96.3,42.9,-46.8,66.3,0,0,3426,0,130,0,
1.9067,178.5,133.8,-176.1,-94.5,41.1,-45.6,69.0,0,0,3432,0,131,0,
1.9100,173.7,120.3,-165.6,-76.2,49.2,-36.6,80.7,0,0,3438,0,132,0,
1.9133,180.6,159.6,-152.4,-49.5,57.3,-34.8,95.7,0,0,3444,0,133,0,
1.9167,177.9,134.7,-158.4,-68.4,50.4,-42.0,78.3,0,0,3450,0,134,0,
1.9200,182.1,115.2,-182.1,-103.2,43.2,-46.8,65.7,0,0,3456,0,135,0,
1.9233,183.9,129.9,-168.9,-97.5,48.3,-39.3,79.8,0,0,3462,0,136,0,
1.9267,175.8,173.7,-153.0,-71.4,52.5,-38.4,81.6,0,0,3468,0,137,0,
1.9300,181.5,152.7,-155.4,-50.4,58.5,-36.6,88.8,0,0,3474,0,138,0,
1.9333,181.8,144.3,-166.5,-79.2,47.4,-48.0,76.5,0,0,3480,0,139,0,
1.9367,179.4,111.3,-185.7,-107.1,41.7,-50.1,62.1,0,0,3486,0,140,0,
1.9400,178.2,118.8,-171.9,-97.8,41.7,-49.5,65.4,0,0,3492,0,141,0,
1.9433,187.5,138.3,-161.7,-76.8,51.6,-41.4,85.5,0,0,3498,0,142,0,
1.9467,165.3,158.4,-147.6,-50.7,56.1,-37.2,95.1,0,0,3504,0,143,0,
1.9500,188.4,144.6,-167.4,-75.6,46.8,-48.3,80.7,0,0,3510,0,144,0,
1.9533,194.1,122.7,-176.4,-101.1,41.7,-46.5,72.6,0,0,3516,0,145,0,
1.9567,183.9,123.6,-170.7,-96.9,43.8,-39.9,75.6,0,0,3522,0,146,0,
1.9600,176.4,147.6,-156.9,-73.2,45.9,-42.0,88.2,0,0,3528,0,147,0,
1.9633,168.6,171.9,-149.4,-50.7,54.9,-44.1,89.4,0,0,3534,0,148,0,
1.9667,184.5,138.6,-162.6,-72.6,50.4,-39.9,77.4,0,0,3540,0,149,0,
1.9700,191.1,136.2,-176.4,-99.9,42.3,-43.8,72.9,0,0,3546,0,150,0,
1.9733,190.2,136.5,-164.7,-91.5,45.6,-42.3,79.2,0,0,3552,0,151,0,
1.9767,179.4,159.9,-155.1,-74.4,54.3,-34.8,94.2,0,0,3558,0,152,0,
1.9800,180.6,159.9,-151.8,-47.1,62.4,-25.8,101.7,0,0,3564,0,153,0,
1.9833,184.5,158.7,-165.6,-76.2,53.7,-34.2,97.8,0,0,3570,0,154,0,
1.9867,187.2,116.1,-176.7,-98.1,45.3,-45.3,75.0,0,0,3576,0,155,0,
1.9900,194.7,127.8,-165.9,-90.3,50.4,-37.5,81.9,0,0,3582,0,156,0,
1.9933,180.0,166.8,-152.7,-68.1,57.6,-31.5,90.0,0,0,3588,0,157,0,
1.9967,183.0,189.6,-138.0,-45.3,64.2,-21.3,105.9,0,0,3594,0,158,0,
2.0000,195.0,160.2,-154.2,-68.4,52.5,-39.9,90.0,0,0,3600,0,159,0,
2.0033,195.6,135.6,-163.5,-93.3,47.4,-42.9,77.7,0,0,3606,0,160,0,
2.0067,192.9,120.0,-167.4,-88.8,47.7,-36.0,83.4,0,0,3612,0,161,0,
2.0100,177.6,142.2,-151.5,-70.5,53.1,-33.3,82.5,0,0,3618,0,162,0,
2.0133,186.9,164.4,-150.0,-50.7,61.5,-36.0,91.8,0,0,3624,0,163,0,
2.0167,189.3,153.0,-151.8,-66.0,54.0,-36.0,86.4,0,0,3630,0,164,0,
2.0200,197.7,147.6,-163.8,-91.2,44.7,-40.2,73.8,0,0,3636,0,165,0,
2.0233,194.4,129.3,-160.5,-87.6,50.1,-37.8,78.6,0,0,3642,0,166,0,
2.0267,191.7,164.1,-150.0,-69.6,58.5,-27.0,93.0,0,0,3648,0,167,0,
2.0300,184.5,184.2,-130.2,-43.2,62.4,-31.5,105.3,0,0,3654,0,168,0,
2.0333,195.0,163.8,-156.0,-68.1,53.7,-33.0,94.8,0,0,3660,0,169,0,
2.0367,200.7,128.1,-165.6,-92.1,48.9,-30.0,86.7,0,0,3666,0,170,0,
2.0400,191.4,139.5,-156.3,-88.2,51.9,-29.1,88.2,0,0,3672,0,171,0,
2.0433,186.9,156.6,-145.2,-66.6,59.1,-26.7,93.9,0,0,3678,0,172,0,
2.0467,183.9,180.3,-132.6,-42.0,66.6,-21.3,105.6,0,0,3684,0,173,0,
2.0500,186.9,138.3,-165.3,-69.9,53.7,-33.3,89.7,0,0,3690,0,174,0,
2.0533,183.6,138.3,-168.0,-89.4,49.5,-35.4,85.5,0,0,3696,0,175,0,
2.0567,185.4,139.2,-166.8,-86.7,52.2,-31.2,84.6,0,0,3702,0,176,0,
2.0600,177.0,144.9,-152.7,-61.8,54.9,-31.5,91.5,0,0,3708,0,177,0,
2.0633,179.1,164.7,-154.5,-46.8,60.0,-29.1,99.3,0,0,3714,0,178,0,
2.0667,185.1,164.4,-158.4,-68.1,50.7,-30.9,87.6,0,0,3720,0,179,0,
2.0700,185.1,127.8,-173.1,-93.0,45.9,-37.5,78.3,0,0,3726,0,180,0,
2.0733,181.8,139.8,-165.9,-89.4,46.5,-33.9,84.3,0,0,3732,0,181,0,
2.0767,177.9,155.4,-157.8,-76.5,53.1,-30.6,90.3,0,0,3738,0,182,0,
2.0800,174.3,168.6,-145.8,-57.3,57.6,-22.5,96.3,0,0,3744,0,183,0,
2.0833,183.3,154.8,-158.7,-74.4,50.1,-35.1,91.5,0,0,3750,0,184,0,
2.0867,182.1,148.5,-167.7,-94.2,47.1,-35.4,80.7,0,0,3756,0,185,0,
2.0900,176.1,137.4,-167.7,-92.7,49.5,-33.3,88.2,0,0,3762,0,186,0,
2.0933,167.1,165.3,-152.7,-70.2,51.6,-33.6,89.1,0,0,3768,0,187,0,
2.0967,171.3,158.4,-154.5,-53.7,58.2,-32.4,92.7,0,0,3774,0,188,0,
2.1000,181.2,141.0,-170.4,-75.9,49.8,-40.2,87.6,0,0,3780,0,189,0,
2.1033,181.8,143.7,-174.6,-99.6,45.3,-39.6,78.6,0,0,3786,0,190,0,
2.1067,180.0,144.6,-166.2,-90.0,50.1,-36.0,82.8,0,0,3792,0,191,0,
2.1100,180.3,138.3,-156.6,-73.5,54.6,-34.8,93.0,0,0,3798,0,192,0,
2.1133,173.7,173.4,-149.1,-57.3,55.5,-31.5,94.5,0,0,3804,0,193,0,
2.1167,186.3,157.2,-157.8,-72.0,50.4,-37.8,88.5,0,0,3810,0,194,0,
2.1200,191.7,138.3,-167.1,-92.1,46.2,-35.7,81.0,0,0,3816,0,195,0,
2.1233,182.4,145.8,-162.6,-87.9,49.5,-31.2,86.4,0,0,3822,0,196,0,
2.1267,182.4,167.7,-147.0,-73.8,53.7,-27.6,98.4,0,0,3828,0,197,0,
2.1300,192.9,183.0,-149.7,-56.1,58.5,-26.1,111.3,0,0,3834,0,198,0,
2.1333,184.2,159.9,-159.9,-74.1,52.5,-33.6,95.4,0,0,3840,0,199,0,
2.1367,183.6,143.7,-168.6,-89.4,51.0,-30.0,89.7,0,0,3846,0,200,0,
2.1400,193.2,149.4,-160.5,-87.9,52.2,-35.7,84.3,0,0,3852,0,201,0,
2.1433,182.1,173.1,-149.4,-70.5,55.8,-36.9,101.7,0,0,3858,0,202,0,
2.1467,183.3,177.3,-146.1,-56.1,59.7,-35.1,99.6,0,0,3864,0,203,0,
2.1500,177.0,156.9,-164.7,-76.2,51.6,-39.3,87.0,0,0,3870,0,204,0,
2.1533,184.5,146.7,-171.9,-95.1,50.7,-40.2,80.1,0,0,3876,0,205,0,
2.1567,184.8,159.3,-168.6,-84.6,52.2,-39.6,79.5,0,0,3882,0,206,0,
2.1600,170.1,148.5,-158.7,-74.1,52.5,-39.9,81.9,0,0,3888,0,207,0,
2.1633,166.5,167.7,-156.3,-57.9,52.8,-43.5,90.0,0,0,3894,0,208,0,
2.1667,170.7,145.8,-167.1,-76.5,49.5,-38.1,83.7,0,0,3900,0,209,0,
2.1700,179.7,130.8,-177.6,-92.1,43.2,-48.0,74.1,0,0,3906,0,210,0,
2.1733,185.1,146.1,-168.9,-86.4,53.7,-33.3,86.1,0,0,3912,0,211,0,
2.1767,172.5,156.6,-161.1,-72.3,51.9,-36.3,82.8,0,0,3918,0,212,0,
2.1800,177.3,166.2,-156.3,-51.0,60.0,-32.1,97.5,0,0,3924,0,213,0,
2.1833,185.1,156.9,-163.8,-72.3,54.0,-31.8,94.2,0,0,3930,0,214,0,
2.1867,186.3,149.1,-172.2,-91.5,48.6,-39.0,80.7,0,0,3936,0,215,0,
2.1900,177.0,141.0,-173.1,-90.6,45.9,-38.7,83.4,0,0,3942,0,216,0,
2.1933,168.3,160.8,-164.1,-75.9,53.4,-37.5,90.0,0,0,3948,0,217,0,
2.1967,168.0,177.0,-150.3,-52.5,55.8,-32.4,99.3,0,0,3954,0,218,0,
2.2000,182.1,164.1,-167.1,-76.5,50.4,-35.1,92.1,0,0,3960,0,219,0,
2.2033,182.7,122.4,-177.0,-93.9,42.9,-41.1,79.8,0,0,3966,0,220,0,
2.2067,180.9,144.0,-170.7,-89.4,50.4,-33.6,86.4,0,0,3972,0,221,0,
2.2100,180.6,161.7,-159.3,-71.1,53.7,-30.0,91.8,0,0,3978,0,222,0,
2.2133,170.1,168.3,-148.5,-48.3,59.4,-30.6,100.5,0,0,3984,0,223,0,
2.2167,176.4,158.1,-171.9,-79.2,51.6,-34.5,93.3,0,0,3990,0,224,0,
2.2200,174.9,158.1,-171.9,-90.9,46.8,-31.8,88.5,0,0,3996,0,225,0,
2.2233,179.7,147.3,-170.4,-89.4,47.7,-32.7,90.6,0,0,4002,0,226,0,
2.2267,173.7,166.2,-165.3,-72.3,54.0,-33.6,102.6,0,0,4008,0,227,0,
2.2300,170.1,183.6,-151.8,-55.5,58.8,-30.3,108.0,0,0,4014,0,228,0,
2.2333,178.8,165.6,-167.1,-74.4,52.5,-35.1,103.5,0,0,4020,0,229,0,
2.2367,186.3,142.8,-169.2,-91.2,48.9,-39.9,92.7,0,0,4026,0,230,0,
2.2400,183.3,152.7,-167.7,-90.9,52.8,-33.6,98.1,0,0,4032,0,231,0,
2.2433,175.5,162.9,-162.6,-72.6,56.7,-31.2,101.7,0,0,4038,0,232,0,
2.2467,179.1,185.4,-150.0,-53.7,58.8,-30.9,107.7,0,0,4044,0,233,0,
2.2500,173.7,145.8,-165.6,-72.9,53.4,-30.0,94.5,0,0,4050,0,234,0,
2.2533,180.6,151.8,-178.2,-100.5,46.8,-39.6,91.5,0,0,4056,0,235,0,
2.2567,182.1,149.7,-164.1,-90.3,49.5,-37.2,86.4,0,0,4062,0,236,0,
2.2600,176.1,153.9,-162.9,-79.5,50.4,-37.2,94.5,0,0,4068,0,237,0,
2.2633,173.1,179.7,-154.5,-54.0,57.9,-36.6,102.0,0,0,4074,0,238,0,
2.2667,174.6,171.3,-164.4,-76.5,48.0,-40.2,94.8,0,0,4080,0,239,0,
2.2700,186.0,145.5,-166.5,-90.9,46.5,-37.8,86.4,0,0,4086,0,240,0,
2.2733,175.8,149.7,-173.4,-97.2,45.6,-42.9,83.7,0,0,4092,0,241,0,
2.2767,178.2,147.0,-163.8,-78.3,54.0,-39.6,93.9,0,0,4098,0,242,0,
2.2800,168.9,175.5,-149.4,-59.4,55.8,-37.8,104.1,0,0,4104,0,243,0,
2.2833,186.9,151.8,-160.8,-77.1,47.7,-36.9,97.2,0,0,4110,0,244,0,
2.2867,197.7,145.8,-169.8,-93.0,47.1,-35.7,92.1,0,0,4116,0,245,0,
2.2900,194.4,161.1,-162.0,-86.7,51.6,-30.3,101.4,0,0,4122,0,246,0,
2.2933,201.3,180.9,-152.1,-68.7,58.5,-28.5,115.5,0,0,4128,0,247,0,
2.2967,195.6,192.9,-147.6,-50.1,62.4,-21.0,131.4,0,0,4134,0,248,0,
2.3000,202.5,171.9,-163.5,-70.2,54.3,-24.9,121.8,0,0,4140,0,249,0,
2.3033,202.8,157.8,-170.7,-86.4,49.8,-26.7,106.2,0,0,4146,0,250,0,
2.3067,192.3,161.4,-167.7,-88.8,47.1,-30.6,107.7,0,0,4152,0,251,0,
2.3100,182.7,177.9,-159.6,-74.4,50.1,-30.0,108.6,0,0,4158,0,252,0,
2.3133,175.8,182.7,-147.9,-58.5,54.0,-27.6,119.7,0,0,4164,0,253,0,
2.3167,189.0,161.4,-163.8,-70.8,49.8,-32.4,106.8,0,0,4170,0,254,0,
2.3200,199.2,144.6,-165.6,-89.7,49.5,-31.2,105.3,0,0,4176,0,255,0,
2.3233,194.7,165.0,-163.2,-86.7,51.6,-26.4,106.5,0,0,4182,0,0,0,
2.3267,192.9,167.7,-146.7,-66.3,55.8,-24.6,115.5,0,0,4188,0,1,0,
2.3300,189.6,177.9,-143.4,-51.6,60.0,-29.7,117.0,0,0,4194,0,2,0,
2.3333,188.1,160.2,-156.0,-71.7,54.6,-32.4,114.3,0,0,4200,0,3,0,
2.3367,200.1,144.9,-168.9,-91.8,47.4,-35.7,99.6,0,0,4206,0,4,0,
2.3400,201.6,155.4,-163.2,-86.7,50.1,-28.2,104.7,0,0,4212,0,5,0,
2.3433,193.8,185.4,-150.3,-69.0,53.1,-26.7,109.5,0,0,4218,0,6,0,
2.3467,179.1,196.5,-138.9,-48.3,54.9,-27.9,117.0,0,0,4224,0,7,0,
2.3500,192.9,165.6,-164.1,-75.0,48.0,-32.4,107.4,0,0,4230,0,8,0,
2.3533,194.4,136.8,-177.0,-94.2,42.6,-35.4,96.0,0,0,4236,0,9,0,
2.3567,198.6,147.0,-166.8,-84.6,42.6,-31.2,102.6,0,0,4242,0,10,0,
2.3600,177.3,150.0,-161.1,-70.8,45.6,-36.0,97.8,0,0,4248,0,11,0,
2.3633,178.2,165.9,-156.9,-50.7,49.2,-36.3,105.0,0,0,4254,0,12,0,
2.3667,182.7,152.1,-167.7,-73.5,46.5,-38.1,99.3,0,0,4260,0,13,0,
2.3700,184.5,132.9,-177.9,-90.3,38.4,-44.4,87.0,0,0,4266,0,14,0,
2.3733,183.0,141.9,-171.9,-88.2,43.5,-37.2,93.6,0,0,4272,0,15,0,
2.3767,177.3,165.3,-152.7,-64.2,51.3,-30.6,104.4,0,0,4278,0,16,0,
2.3800,172.2,179.1,-152.1,-48.3,51.3,-33.9,112.2,0,0,4284,0,17,0,
2.3833,182.7,159.6,-170.7,-69.6,49.2,-35.7,104.4,0,0,4290,0,18,0,
2.3867,183.6,148.8,-170.4,-90.0,41.7,-42.9,89.7,0,0,4296,0,19,0,
2.3900,183.9,164.1,-168.9,-84.9,42.0,-42.3,93.6,0,0,4302,0,20,0,
2.3933,172.8,152.7,-168.6,-75.0,45.0,-36.0,96.9,0,0,4308,0,21,0,
2.3967,171.6,173.4,-156.3,-52.5,46.2,-41.1,103.2,0,0,4314,0,22,0,
2.4000,176.1,146.7,-169.2,-78.0,42.0,-43.5,94.8,0,0,4320,0,23,0,
2.4033,181.5,133.2,-177.6,-99.3,38.4,-44.7,81.6,0,0,4326,0,24,0,
2.4067,184.8,145.2,-170.7,-89.7,42.3,-39.0,97.8,0,0,4332,0,25,0,
2.4100,186.9,164.7,-157.5,-69.6,47.1,-36.6,103.8,0,0,4338,0,26,0,
2.4133,183.6,175.8,-158.7,-59.1,51.0,-30.6,115.2,0,0,4344,0,27,0,
2.4167,186.3,154.2,-165.9,-78.9,45.6,-39.9,99.6,0,0,4350,0,28,0,
2.4200,194.4,142.2,-175.2,-96.9,40.5,-41.7,92.7,0,0,4356,0,29,0,
2.4233,184.2,142.2,-172.2,-95.4,38.7,-44.1,95.1,0,0,4362,0,30,0,
2.4267,179.1,163.5,-159.6,-75.6,43.2,-44.4,101.7,0,0,4368,0,31,0,
2.4300,176.1,183.9,-155.4,-55.2,48.0,-41.4,107.1,0,0,4374,0,32,0,
2.4333,183.3,177.0,-157.5,-71.7,43.5,-40.2,100.2,0,0,4380,0,33,0,
2.4367,190.2,153.9,-170.4,-88.2,41.4,-45.3,90.9,0,0,4386,0,34,0,
2.4400,180.6,137.7,-160.2,-84.6,40.5,-44.7,87.3,0,0,4392,0,35,0,
2.4433,179.1,160.2,-155.4,-69.9,45.9,-39.3,99.3,0,0,4398,0,36,0,
2.4467,182.4,182.4,-150.0,-46.8,50.1,-41.7,106.2,0,0,4404,0,37,0,
2.4500,196.8,152.7,-167.1,-67.2,45.3,-41.7,95.1,0,0,4410,0,38,0,
2.4533,189.6,139.2,-171.0,-89.1,42.9,-44.1,83.7,0,0,4416,0,39,0,
2.4567,187.8,148.8,-166.2,-86.4,46.8,-39.3,91.8,0,0,4422,0,40,0,
2.4600,183.0,166.8,-154.8,-68.1,51.0,-35.7,99.6,0,0,4428,0,41,0,
2.4633,177.9,192.0,-146.4,-45.9,55.5,-30.0,111.3,0,0,4434,0,42,0,
2.4667,183.0,168.3,-157.8,-65.1,50.1,-35.4,99.9,0,0,4440,0,43,0,
2.4700,188.1,162.3,-170.1,-90.0,41.4,-36.6,87.9,0,0,4446,0,44,0,
2.4733,184.5,155.7,-162.3,-84.9,45.0,-33.6,93.6,0,0,4452,0,45,0,
2.4767,176.4,162.9,-158.1,-67.8,51.3,-30.0,103.5,0,0,4458,0,46,0,
2.4800,181.8,185.7,-146.4,-48.0,57.9,-23.7,108.0,0,0,4464,0,47,0,
2.4833,180.3,176.4,-154.2,-62.4,53.7,-23.1,99.6,0,0,4470,0,48,0,
2.4867,186.3,151.2,-170.1,-86.1,47.1,-28.8,93.9,0,0,4476,0,49,0,
2.4900,183.9,147.6,-165.0,-84.6,47.1,-27.9,91.2,0,0,4482,0,50,0,
2.4933,180.6,171.9,-160.8,-70.2,52.5,-24.6,96.6,0,0,4488,0,51,0,
2.4967,170.4,181.8,-146.7,-53.7,59.1,-20.7,103.2,0,0,4494,0,52,0,
2.5000,184.8,167.4,-167.7,-72.6,55.8,-21.9,97.2,0,0,4500,0,53,0,
2.5033,184.8,165.9,-158.7,-79.5,52.2,-25.2,91.5,0,0,4506,0,54,0,
2.5067,176.4,172.2,-159.3,-75.3,51.0,-28.5,92.1,0,0,4512,0,55,0,
2.5100,179.1,183.9,-149.1,-64.2,56.7,-24.3,102.9,0,0,4518,0,56,0,
2.5133,178.5,183.9,-150.9,-63.0,54.3,-23.7,108.0,0,0,4524,0,57,0,
2.5167,178.8,170.7,-153.9,-71.4,52.8,-23.7,101.4,0,0,4530,0,58,0,
2.5200,192.9,168.6,-156.0,-78.9,52.2,-24.3,104.1,0,0,4536,0,59,0,
2.5233,185.4,172.2,-154.5,-72.6,56.4,-21.0,101.7,0,0,4542,0,60,0,
2.5267,177.3,177.3,-151.2,-61.2,58.5,-17.7,110.7,0,0,4548,0,61,0,
2.5300,169.5,162.9,-160.5,-62.1,57.3,-23.1,103.2,0,0,4554,0,62,0,
2.5333,168.3,143.1,-169.8,-74.1,49.5,-27.0,88.2,0,0,4560,0,63,0,
2.5367,188.1,151.2,-163.8,-72.9,52.8,-23.7,91.5,0,0,4566,0,64,0,
2.5400,192.6,181.5,-155.1,-67.8,52.8,-15.0,104.4,0,0,4572,0,65,0,
2.5433,191.7,182.1,-151.2,-60.0,57.6,-15.6,105.9,0,0,4578,0,66,0,
2.5467,190.2,188.7,-147.3,-61.2,54.3,-18.9,97.2,0,0,4584,0,67,0,
2.5500,189.6,156.6,-157.5,-69.9,51.3,-19.8,93.9,0,0,4590,0,68,0,
2.5533,200.1,163.2,-161.7,-77.1,48.9,-23.4,90.3,0,0,4596,0,69,0,
2.5567,201.3,168.3,-148.5,-65.1,54.6,-18.0,99.3,0,0,4602,0,70,0,
2.5600,200.7,172.5,-149.4,-65.1,55.5,-15.0,101.7,0,0,4608,0,71,0,
2.5633,195.3,178.5,-138.3,-57.6,57.0,-17.1,105.9,0,0,4614,0,72,0,
2.5667,213.6,173.7,-152.4,-70.5,52.8,-22.8,95.4,0,0,4620,0,73,0,
2.5700,205.2,170.4,-146.4,-75.6,52.5,-26.1,93.0,0,0,4626,0,74,0,
2.5733,207.0,170.1,-151.5,-73.2,51.6,-24.9,96.3,0,0,4632,0,75,0,
2.5767,197.4,172.2,-152.7,-70.2,53.4,-23.7,92.7,0,0,4638,0,76,0,
2.5800,202.5,177.0,-151.2,-69.6,52.2,-23.7,94.2,0,0,4644,0,77,0,
2.5833,209.1,177.9,-148.2,-73.5,51.6,-23.4,94.8,0,0,4650,0,78,0,
2.5867,195.3,159.3,-158.1,-77.1,44.7,-33.0,85.8,0,0,4656,0,79,0,
2.5900,197.1,168.3,-151.5,-69.0,45.3,-29.4,90.3,0,0,4662,0,80,0,
2.5933,210.3,177.9,-149.1,-66.0,50.7,-20.7,103.8,0,0,4668,0,81,0,
2.5967,207.9,182.7,-149.4,-60.9,55.8,-18.9,106.2,0,0,4674,0,82,0,
2.6000,204.9,167.7,-157.8,-71.1,50.7,-24.9,100.8,0,0,4680,0,83,0,
2.6033,197.7,159.0,-162.0,-75.6,49.8,-27.3,92.1,0,0,4686,0,84,0,
2.6067,200.1,161.4,-161.1,-69.0,51.0,-27.3,87.0,0,0,4692,0,85,0,
2.6100,212.4,168.3,-152.7,-66.0,49.8,-24.9,98.4,0,0,4698,0,86,0,
2.6133,214.5,176.7,-150.3,-61.2,47.1,-24.3,103.8,0,0,4704,0,87,0,
2.6167,210.9,176.7,-152.7,-68.7,47.1,-25.5,94.2,0,0,4710,0,88,0,
2.6200,211.8,159.6,-153.0,-72.9,45.9,-28.8,89.7,0,0,4716,0,89,0,
2.6233,208.8,173.4,-151.2,-68.4,48.3,-22.2,96.0,0,0,4722,0,90,0,
2.6267,207.3,174.9,-142.2,-62.1,47.7,-26.7,92.1,0,0,4728,0,91,0,
2.6300,199.5,166.8,-151.8,-62.1,45.9,-28.5,90.6,0,0,4734,0,92,0,
2.6333,199.8,145.8,-155.4,-67.5,42.9,-34.2,79.2,0,0,4740,0,93,0,
2.6367,193.2,152.4,-161.4,-77.4,41.7,-30.6,84.0,0,0,4746,0,94,0,
2.6400,195.3,150.9,-162.6,-79.2,37.5,-36.3,78.6,0,0,4752,0,95,0,
2.6433,192.3,154.8,-164.7,-68.1,42.9,-35.7,87.0,0,0,4758,0,96,0,
2.6467,192.0,161.7,-156.0,-65.7,43.8,-37.2,81.3,0,0,4764,0,97,0,
2.6500,193.8,150.3,-164.7,-75.9,41.7,-33.9,80.4,0,0,4770,0,98,0,
2.6533,201.0,146.1,-165.9,-81.6,42.6,-37.2,81.9,0,0,4776,0,99,0,
2.6567,193.5,157.8,-161.1,-79.8,44.7,-32.7,85.8,0,0,4782,0,100,0,
2.6600,199.2,163.8,-157.5,-68.7,46.2,-28.2,88.2,0,0,4788,0,101,0,
2.6633,198.3,179.1,-154.5,-61.2,52.5,-24.9,96.0,0,0,4794,0,102,0,
2.6667,203.7,176.1,-156.9,-72.3,50.7,-25.8,89.1,0,0,4800,0,103,0,
2.6700,210.3,169.8,-159.3,-79.5,50.4,-21.9,90.9,0,0,4806,0,104,0,
2.6733,208.2,159.3,-162.9,-75.9,48.3,-28.2,90.0,0,0,4812,0,105,0,
2.6767,202.5,173.1,-156.9,-63.9,53.4,-26.1,95.1,0,0,4818,0,106,0,
2.6800,201.0,175.5,-153.9,-58.5,51.6,-29.4,92.1,0,0,4824,0,107,0,
2.6833,197.7,166.2,-158.7,-70.8,47.4,-30.3,85.8,0,0,4830,0,108,0,
2.6867,207.3,158.7,-162.0,-75.3,48.0,-27.9,86.7,0,0,4836,0,109,0,
2.6900,204.3,165.6,-157.2,-74.1,50.4,-23.7,85.8,0,0,4842,0,110,0,
2.6933,202.8,171.3,-157.2,-63.0,51.9,-25.2,88.8,0,0,4848,0,111,0,
2.6967,195.0,174.6,-154.2,-58.8,50.7,-26.7,90.3,0,0,4854,0,112,0,
2.7000,198.0,163.5,-159.6,-72.6,44.1,-29.4,85.2,0,0,4860,0,113,0,
2.7033,199.8,167.1,-156.3,-79.2,41.7,-31.8,82.5,0,0,4866,0,114,0,
2.7067,199.5,172.2,-154.8,-71.1,45.0,-30.3,83.7,0,0,4872,0,115,0,
2.7100,202.2,176.1,-147.6,-58.8,47.4,-27.9,84.9,0,0,4878,0,116,0,
2.7133,190.8,192.9,-145.8,-51.6,48.9,-26.1,90.9,0,0,4884,0,117,0,
2.7167,198.6,161.4,-157.5,-65.7,45.0,-31.5,81.0,0,0,4890,0,118,0,
2.7200,201.3,146.1,-165.9,-76.2,44.4,-33.9,77.4,0,0,4896,0,119,0,
2.7233,196.5,162.9,-156.3,-69.6,45.3,-34.8,78.9,0,0,4902,0,120,0,
2.7267,191.7,172.5,-153.6,-60.9,49.2,-29.7,82.5,0,0,4908,0,121,0,
2.7300,192.9,166.8,-155.1,-57.3,47.1,-28.8,84.9,0,0,4914,0,122,0,
2.7333,191.1,159.9,-163.2,-71.1,45.0,-33.3,82.5,0,0,4920,0,123,0,
2.7367,208.8,165.6,-160.8,-71.4,49.8,-27.3,90.0,0,0,4926,0,124,0,
2.7400,197.1,164.4,-156.9,-65.7,46.2,-30.3,84.0,0,0,4932,0,125,0,
2.7433,194.7,170.1,-150.3,-54.6,52.5,-29.1,87.9,0,0,4938,0,126,0,
2.7467,199.5,176.4,-146.1,-50.7,53.1,-27.9,89.1,0,0,4944,0,127,0,
2.7500,206.4,162.3,-162.9,-68.1,50.1,-30.0,84.9,0,0,4950,0,128,0,
2.7533,203.1,162.9,-163.5,-73.5,47.7,-31.2,79.5,0,0,4956,0,129,0,
2.7567,204.3,162.9,-162.6,-70.2,51.3,-27.9,89.1,0,0,4962,0,130,0,
2.7600,193.8,161.4,-157.2,-63.6,50.7,-28.8,84.0,0,0,4968,0,131,0,
2.7633,187.8,164.1,-161.4,-58.5,52.8,-30.6,84.6,0,0,4974,0,132,0,
2.7667,195.9,157.5,-161.7,-67.8,48.3,-35.4,84.9,0,0,4980,0,133,0,
2.7700,196.2,153.3,-161.7,-72.6,47.7,-34.5,80.4,0,0,4986,0,134,0,
2.7733,183.9,160.8,-154.5,-70.5,48.6,-34.5,81.3,0,0,4992,0,135,0,
2.7767,185.1,169.8,-153.6,-61.8,53.1,-35.1,82.8,0,0,4998,0,136,0,
2.7800,192.9,171.9,-151.5,-49.5,57.6,-30.0,87.6,0,0,5004,0,137,0,
2.7833,199.2,177.0,-149.4,-63.9,49.5,-30.6,88.8,0,0,5010,0,138,0,
2.7867,210.0,162.3,-159.6,-70.5,49.2,-29.1,83.7,0,0,5016,0,139,0,
2.7900,190.5,174.9,-145.8,-64.5,49.5,-30.6,85.2,0,0,5022,0,140,0,
2.7933,196.8,168.3,-148.2,-57.6,55.8,-27.6,94.8,0,0,5028,0,141,0,
2.7967,190.8,174.9,-137.1,-45.3,58.5,-26.7,94.8,0,0,5034,0,142,0,
2.8000,210.9,152.1,-161.7,-65.4,51.0,-29.4,85.2,0,0,5040,0,143,0,
2.8033,207.0,158.4,-155.4,-70.5,51.9,-25.2,87.9,0,0,5046,0,144,0,
2.8067,200.1,156.9,-154.5,-65.4,51.3,-32.1,84.3,0,0,5052,0,145,0,
2.8100,194.7,167.7,-148.2,-55.8,54.9,-31.8,86.1,0,0,5058,0,146,0,
2.8133,193.5,168.3,-146.7,-51.0,54.3,-30.0,93.3,0,0,5064,0,147,0,
2.8167,198.9,161.7,-153.3,-65.7,47.1,-31.5,82.2,0,0,5070,0,148,0,
2.8200,196.8,148.8,-162.6,-74.1,46.8,-37.2,80.1,0,0,5076,0,149,0,
2.8233,196.5,158.4,-161.1,-69.0,47.4,-31.5,85.5,0,0,5082,0,150,0,
2.8267,190.8,162.9,-146.1,-56.7,54.6,-30.6,92.4,0,0,5088,0,151,0,
2.8300,190.8,162.9,-151.8,-51.9,58.2,-30.6,96.6,0,0,5094,0,152,0,
2.8333,194.7,142.8,-156.9,-67.5,50.4,-36.6,84.6,0,0,5100,0,153,0,
2.8367,208.2,156.6,-150.0,-67.5,54.3,-27.3,98.4,0,0,5106,0,154,0,
2.8400,210.6,156.9,-144.9,-60.9,51.9,-27.3,93.0,0,0,5112,0,155,0,
2.8433,207.6,168.6,-136.8,-54.6,51.3,-28.5,95.1,0,0,5118,0,156,0,
2.8467,200.1,173.1,-139.5,-46.5,53.1,-30.3,103.2,0,0,5124,0,157,0,
2.8500,201.0,153.6,-148.5,-60.9,51.6,-35.4,89.1,0,0,5130,0,158,0,
2.8533,196.5,151.5,-155.4,-70.5,47.1,-36.6,83.7,0,0,5136,0,159,0,
2.8567,187.8,159.6,-155.1,-65.7,45.9,-36.6,83.7,0,0,5142,0,160,0,
2.8600,195.0,168.9,-144.9,-50.4,51.0,-28.2,90.6,0,0,5148,0,161,0,
2.8633,193.2,178.2,-141.0,-44.1,53.1,-28.8,97.5,0,0,5154,0,162,0,
2.8667,200.4,159.3,-152.1,-62.4,51.0,-30.6,89.4,0,0,5160,0,163,0,
2.8700,189.3,151.5,-158.4,-69.0,52.2,-32.7,86.7,0,0,5166,0,164,0,
2.8733,189.6,156.0,-155.4,-67.2,53.1,-31.5,87.9,0,0,5172,0,165,0,
2.8767,191.4,169.2,-147.9,-57.6,56.4,-27.3,95.4,0,0,5178,0,166,0,
2.8800,198.6,168.6,-144.6,-51.9,55.5,-24.0,100.5,0,0,5184,0,167,0,
2.8833,205.8,173.4,-145.2,-64.2,54.6,-24.6,99.3,0,0,5190,0,168,0,
2.8867,195.9,159.3,-149.4,-71.4,51.9,-24.6,92.7,0,0,5196,0,169,0,
2.8900,203.1,162.0,-152.1,-69.6,55.2,-22.8,97.8,0,0,5202,0,170,0,
2.8933,198.9,177.0,-136.2,-57.6,56.1,-21.9,106.2,0,0,5208,0,171,0,
2.8967,205.5,190.8,-136.8,-53.4,59.4,-19.5,109.2,0,0,5214,0,172,0,
2.9000,202.8,173.4,-144.3,-68.7,51.9,-25.2,92.7,0,0,5220,0,173,0,
2.9033,200.1,167.1,-146.7,-72.3,51.3,-26.7,88.8,0,0,5226,0,174,0,
2.9067,201.6,170.7,-147.9,-69.6,53.7,-28.2,91.2,0,0,5232,0,175,0,
2.9100,204.3,178.8,-144.6,-56.4,57.3,-25.2,96.0,0,0,5238,0,176,0,
2.9133,200.4,178.2,-140.1,-49.5,61.2,-24.9,98.4,0,0,5244,0,177,0,
2.9167,208.5,169.2,-149.1,-62.1,55.2,-23.4,98.1,0,0,5250,0,178,0,
2.9200,207.3,169.5,-151.2,-72.6,51.9,-25.8,100.5,0,0,5256,0,179,0,
2.9233,203.1,173.7,-149.1,-66.3,51.3,-29.7,92.4,0,0,5262,0,180,0,
2.9267,188.4,172.5,-145.5,-54.3,51.6,-33.6,87.0,0,0,5268,0,181,0,
2.9300,190.8,172.5,-146.7,-53.7,55.2,-36.6,79.8,0,0,5274,0,182,0,
2.9333,198.3,167.4,-153.3,-66.0,51.3,-34.2,89.4,0,0,5280,0,183,0,
2.9367,209.4,160.5,-156.6,-75.0,56.7,-23.4,106.2,0,0,5286,0,184,0,
2.9400,200.1,157.8,-156.3,-71.7,54.3,-28.5,95.4,0,0,5292,0,185,0,
2.9433,197.1,178.5,-140.4,-57.0,59.1,-27.6,99.6,0,0,5298,0,186,0,
2.9467,209.7,186.6,-144.3,-48.6,66.0,-18.0,115.8,0,0,5304,0,187,0,
2.9500,203.4,186.6,-146.4,-65.7,61.2,-18.9,111.9,0,0,5310,0,188,0,
2.9533,209.4,170.1,-154.8,-72.0,63.6,-16.5,112.8,0,0,5316,0,189,0,
2.9567,191.1,175.8,-151.5,-67.5,63.3,-23.1,105.3,0,0,5322,0,190,0,
2.9600,183.0,173.1,-153.0,-58.2,60.3,-27.9,103.5,0,0,5328,0,191,0,
2.9633,181.5,181.8,-153.3,-54.9,59.7,-26.4,109.2,0,0,5334,0,192,0,
2.9667,182.4,157.2,-159.9,-65.1,55.8,-28.2,101.4,0,0,5340,0,193,0,
2.9700,180.3,143.1,-168.9,-77.7,52.8,-29.4,96.6,0,0,5346,0,194,0,
2.9733,176.1,153.0,-164.1,-71.1,55.2,-26.7,105.3,0,0,5352,0,195,0,
2.9767,170.7,168.6,-155.7,-55.2,54.9,-30.6,108.9,0,0,5358,0,196,0,
2.9800,173.4,176.7,-151.5,-46.5,60.0,-27.9,110.4,0,0,5364,0,197,0,
2.9833,180.0,159.6,-159.0,-62.1,57.0,-32.7,102.6,0,0,5370,0,198,0,
2.9867,184.8,158.4,-156.9,-69.9,54.0,-31.5,105.3,0,0,5376,0,199,0,
2.9900,182.4,164.7,-153.9,-65.7,52.2,-31.2,102.3,0,0,5382,0,200,0,
2.9933,186.3,176.4,-148.2,-51.3,59.7,-23.1,113.1,0,0,5388,0,201,0,
2.9967,185.7,191.7,-141.3,-48.9,58.2,-25.2,116.4,0,0,5394,0,202,0,
3.0000,197.1,164.7,-157.5,-69.6,51.9,-27.3,105.3,0,0,5400,0,203,0,
3.0033,187.2,153.6,-160.8,-76.8,49.2,-29.7,99.3,0,0,5406,0,204,0,
3.0067,178.2,167.1,-158.4,-69.0,52.5,-28.2,103.2,0,0,5412,0,205,0,
3.0100,181.2,173.7,-149.1,-58.2,55.5,-30.3,103.2,0,0,5418,0,206,0,
3.0133,175.2,184.5,-150.9,-51.6,56.7,-23.7,113.4,0,0,5424,0,207,0,
3.0167,191.4,159.0,-156.0,-66.9,54.3,-27.9,102.9,0,0,5430,0,208,0,
3.0200,192.6,153.6,-156.9,-74.4,54.0,-27.6,97.8,0,0,5436,0,209,0,
3.0233,193.5,160.2,-151.2,-66.0,58.8,-26.1,107.1,0,0,5442,0,210,0,
3.0267,184.2,176.4,-145.5,-52.2,62.1,-24.9,117.9,0,0,5448,0,211,0,
3.0300,176.7,178.5,-143.7,-48.9,60.3,-32.1,114.6,0,0,5454,0,212,0,
3.0333,175.5,159.9,-151.2,-69.6,53.4,-39.0,101.7,0,0,5460,0,213,0,
3.0367,184.8,147.3,-164.4,-80.1,53.4,-34.2,100.5,0,0,5466,0,214,0,
3.0400,180.0,150.3,-164.7,-75.3,54.3,-34.2,94.5,0,0,5472,0,215,0,
3.0433,171.6,155.4,-162.3,-64.5,51.6,-41.1,87.3,0,0,5478,0,216,0,
3.0467,171.9,160.2,-160.2,-54.6,50.4,-40.8,90.3,0,0,5484,0,217,0,
3.0500,168.0,141.0,-170.1,-73.8,42.0,-47.1,78.0,0,0,5490,0,218,0,
3.0533,174.0,140.7,-165.6,-80.7,42.0,-44.1,79.5,0,0,5496,0,219,0,
3.0567,174.3,139.5,-164.7,-72.9,47.1,-39.0,87.6,0,0,5502,0,220,0,
3.0600,175.2,147.6,-157.2,-62.1,49.2,-36.6,90.6,0,0,5508,0,221,0,
3.0633,171.9,151.8,-158.1,-54.6,51.6,-36.6,85.5,0,0,5514,0,222,0,
3.0667,169.8,156.6,-162.0,-67.5,49.5,-34.8,84.9,0,0,5520,0,223,0,
3.0700,177.6,142.5,-161.4,-74.1,50.1,-34.2,87.6,0,0,5526,0,224,0,
3.0733,191.7,161.4,-147.3,-59.4,54.6,-26.1,93.9,0,0,5532,0,225,0,
3.0767,181.5,167.4,-145.5,-52.8,57.0,-26.7,96.6,0,0,5538,0,226,0,
3.0800,176.1,169.5,-145.2,-50.4,57.9,-25.2,101.7,0,0,5544,0,227,0,
3.0833,186.3,158.4,-149.7,-65.4,56.4,-24.3,98.1,0,0,5550,0,228,0,
3.0867,191.4,162.9,-150.0,-72.0,55.2,-26.1,98.4,0,0,5556,0,229,0,
3.0900,193.8,173.1,-142.2,-66.3,59.1,-21.9,101.1,0,0,5562,0,230,0,
3.0933,185.7,167.4,-141.9,-57.6,60.3,-24.3,104.1,0,0,5568,0,231,0,
3.0967,185.4,161.7,-145.5,-51.0,62.4,-24.6,102.0,0,0,5574,0,232,0,
3.1000,179.7,152.1,-153.9,-71.1,57.6,-30.0,95.1,0,0,5580,0,233,0,
3.1033,183.9,153.6,-154.5,-75.6,56.4,-27.9,90.9,0,0,5586,0,234,0,
3.1067,179.4,167.4,-148.5,-65.7,57.3,-26.1,95.7,0,0,5592,0,235,0,
3.1100,176.7,159.9,-148.5,-56.4,62.7,-27.9,99.0,0,0,5598,0,236,0,
3.1133,191.4,170.4,-144.0,-52.2,63.3,-21.9,109.5,0,0,5604,0,237,0,
3.1167,197.4,158.1,-154.5,-69.3,55.2,-23.7,102.3,0,0,5610,0,238,0,
3.1200,193.5,168.6,-141.0,-71.1,52.8,-27.0,101.7,0,0,5616,0,239,0,
3.1233,192.0,161.1,-155.4,-71.4,55.5,-24.6,99.0,0,0,5622,0,240,0,
3.1267,188.7,176.1,-144.3,-58.2,61.8,-20.7,108.3,0,0,5628,0,241,0,
3.1300,189.9,175.2,-145.2,-56.1,63.6,-21.3,105.3,0,0,5634,0,242,0,
3.1333,192.3,162.0,-150.3,-69.6,58.2,-23.7,103.2,0,0,5640,0,243,0,
3.1367,197.1,155.7,-159.0,-79.2,59.4,-21.0,104.1,0,0,5646,0,244,0,
3.1400,189.6,172.5,-146.7,-69.6,58.5,-16.5,107.1,0,0,5652,0,245,0,
3.1433,188.1,164.7,-148.5,-65.4,59.7,-20.7,103.2,0,0,5658,0,246,0,
3.1467,183.0,171.6,-145.5,-58.8,59.7,-22.2,105.6,0,0,5664,0,247,0,
3.1500,190.8,157.5,-153.9,-72.3,56.1,-22.8,98.4,0,0,5670,0,248,0,
3.1533,189.3,160.2,-154.5,-82.5,55.8,-21.0,100.2,0,0,5676,0,249,0,
3.1567,187.2,162.9,-153.9,-74.7,57.3,-21.0,96.9,0,0,5682,0,250,0,
3.1600,189.3,170.1,-148.8,-61.5,60.9,-17.7,104.4,0,0,5688,0,251,0,
3.1633,184.2,183.0,-145.8,-54.0,61.8,-18.0,109.5,0,0,5694,0,252,0,
3.1667,188.7,160.8,-158.1,-73.5,52.5,-21.0,99.0,0,0,5700,0,253,0,
3.1700,186.3,160.5,-159.0,-76.5,53.7,-19.5,94.8,0,0,5706,0,254,0,
3.1733,189.6,157.2,-158.7,-71.7,54.0,-19.8,93.6,0,0,5712,0,255,0,
3.1767,180.9,171.6,-151.2,-62.7,59.7,-17.7,102.3,0,0,5718,0,0,0,
3.1800,179.4,170.1,-155.1,-62.4,54.3,-22.2,105.0,0,0,5724,0,1,0,
3.1833,177.3,168.3,-160.5,-77.4,54.6,-20.1,98.4,0,0,5730,0,2,0,
3.1867,180.6,148.5,-165.6,-81.6,53.1,-21.0,98.1,0,0,5736,0,3,0,
3.1900,177.6,149.7,-166.2,-79.8,52.8,-23.1,93.9,0,0,5742,0,4,0,
3.1933,183.9,169.8,-155.4,-63.0,56.7,-20.7,103.2,0,0,5748,0,5,0,
3.1967,188.1,172.8,-157.5,-58.5,62.7,-19.8,105.3,0,0,5754,0,6,0,
3.2000,188.1,157.5,-161.7,-74.7,53.1,-24.6,92.1,0,0,5760,0,7,0,
3.2033,184.2,160.2,-164.7,-78.9,55.2,-23.4,96.0,0,0,5766,0,8,0,
3.2067,194.4,157.8,-154.5,-70.5,58.8,-19.8,101.4,0,0,5772,0,9,0,
3.2100,186.0,165.6,-155.1,-63.9,59.7,-22.5,106.2,0,0,5778,0,10,0,
3.2133,186.3,174.3,-150.9,-54.0,64.8,-21.3,105.3,0,0,5784,0,11,0,
3.2167,190.8,159.6,-161.4,-70.2,60.9,-23.1,102.3,0,0,5790,0,12,0,
3.2200,183.6,149.4,-157.5,-73.5,57.6,-24.9,91.5,0,0,5796,0,13,0,
3.2233,184.5,161.1,-160.8,-69.3,60.9,-20.1,100.2,0,0,5802,0,14,0,
3.2267,185.7,173.7,-148.5,-54.3,61.8,-20.7,102.6,0,0,5808,0,15,0,
3.2300,186.0,166.8,-150.9,-50.1,61.2,-19.5,107.7,0,0,5814,0,16,0,
3.2333,196.2,158.4,-153.0,-68.1,58.2,-20.4,96.6,0,0,5820,0,17,0,
3.2367,205.2,159.6,-158.7,-74.7,58.8,-15.6,101.1,0,0,5826,0,18,0,
3.2400,202.8,166.5,-150.9,-72.9,60.9,-15.0,107.1,0,0,5832,0,19,0,
3.2433,196.8,182.4,-144.0,-54.6,68.1,-13.5,117.9,0,0,5838,0,20,0,
3.2467,188.4,186.0,-140.4,-46.5,65.7,-12.6,117.6,0,0,5844,0,21,0,
3.2500,200.4,173.7,-150.9,-61.2,59.4,-14.7,114.0,0,0,5850,0,22,0,
3.2533,196.2,160.8,-156.3,-73.2,59.1,-15.9,106.2,0,0,5856,0,23,0,
3.2567,195.0,159.9,-155.4,-66.0,60.6,-16.2,110.1,0,0,5862,0,24,0,
3.2600,186.0,178.2,-146.7,-54.6,63.3,-16.8,113.1,0,0,5868,0,25,0,
3.2633,181.2,176.7,-150.6,-53.4,59.4,-23.4,104.1,0,0,5874,0,26,0,
3.2667,189.6,150.9,-165.0,-74.4,55.8,-27.3,94.2,0,0,5880,0,27,0,
3.2700,192.6,156.9,-157.8,-83.1,56.1,-21.9,97.2,0,0,5886,0,28,0,
3.2733,189.0,167.1,-152.1,-70.5,60.6,-19.8,99.9,0,0,5892,0,29,0,
3.2767,185.1,167.1,-148.8,-60.0,58.5,-26.7,100.5,0,0,5898,0,30,0,
3.2800,187.8,174.6,-142.2,-51.6,62.1,-21.0,105.9,0,0,5904,0,31,0,
3.2833,186.6,160.8,-160.8,-81.9,54.9,-26.1,97.2,0,0,5910,0,32,0,
3.2867,180.3,158.4,-159.0,-81.6,50.7,-29.4,90.9,0,0,5916,0,33,0,
3.2900,178.5,162.6,-156.0,-72.9,56.7,-24.0,90.9,0,0,5922,0,34,0,
3.2933,191.1,177.6,-154.8,-59.7,60.9,-15.9,109.5,0,0,5928,0,35,0,
3.2967,191.1,184.8,-149.1,-51.0,63.3,-16.5,112.2,0,0,5934,0,36,0,
3.3000,203.1,155.7,-162.0,-73.5,58.5,-15.3,102.9,0,0,5940,0,37,0,
3.3033,203.4,155.4,-162.3,-80.1,56.7,-18.0,95.7,0,0,5946,0,38,0,
3.3067,203.1,174.6,-153.9,-67.8,61.2,-14.1,105.3,0,0,5952,0,39,0,
3.3100,195.9,182.1,-146.1,-54.0,65.1,-12.0,113.7,0,0,5958,0,40,0,
3.3133,187.8,177.9,-156.6,-57.3,60.3,-20.1,103.5,0,0,5964,0,41,0,
3.3167,202.5,162.3,-166.8,-68.7,58.2,-18.6,97.2,0,0,5970,0,42,0,
3.3200,200.1,165.6,-159.6,-73.5,60.6,-13.2,101.7,0,0,5976,0,43,0,
3.3233,196.2,165.6,-156.9,-63.0,62.7,-15.9,102.6,0,0,5982,0,44,0,
3.3267,198.6,173.7,-150.6,-51.9,66.3,-10.5,110.1,0,0,5988,0,45,0,
3.3300,194.4,183.3,-147.9,-46.2,61.8,-12.9,109.5,0,0,5994,0,46,0,
3.3333,201.6,162.0,-155.7,-63.0,59.7,-14.4,100.8,0,0,6000,0,47,0,
3.3367,201.0,163.5,-162.3,-68.7,60.9,-16.5,98.1,0,0,6006,0,48,0,
3.3400,193.2,164.7,-153.9,-59.7,64.5,-12.6,101.4,0,0,6012,0,49,0,
3.3433,198.0,181.5,-151.8,-49.2,66.9,-10.8,108.3,0,0,6018,0,50,0,
3.3467,199.8,183.3,-151.2,-46.2,67.5,-7.8,112.5,0,0,6024,0,51,0,
3.3500,202.8,164.7,-155.1,-60.6,60.9,-9.9,107.7,0,0,6030,0,52,0,
3.3533,202.2,156.3,-161.1,-69.9,57.6,-13.8,99.3,0,0,6036,0,53,0,
3.3567,203.4,168.6,-157.2,-61.8,59.7,-18.3,98.7,0,0,6042,0,54,0,
3.3600,197.1,179.7,-148.8,-53.1,62.7,-15.6,97.8,0,0,6048,0,55,0,
3.3633,200.1,180.9,-141.9,-46.5,66.6,-17.1,103.5,0,0,6054,0,56,0,
3.3667,200.1,171.6,-152.1,-57.6,58.8,-15.6,93.0,0,0,6060,0,57,0,
3.3700,203.1,166.2,-153.9,-64.5,61.2,-15.9,95.7,0,0,6066,0,58,0,
3.3733,205.5,169.5,-153.0,-60.3,61.5,-15.9,104.4,0,0,6072,0,59,0,
3.3767,203.4,177.0,-142.2,-48.3,61.2,-14.4,108.9,0,0,6078,0,60,0,
3.3800,206.1,159.9,-152.4,-52.2,60.9,-18.9,105.0,0,0,6084,0,61,0,
3.3833,202.5,153.6,-154.8,-61.2,58.5,-22.5,94.8,0,0,6090,0,62,0,
3.3867,197.1,145.5,-160.5,-69.6,54.0,-27.3,90.6,0,0,6096,0,63,0,
3.3900,198.3,150.6,-157.5,-67.2,52.5,-28.5,96.6,0,0,6102,0,64,0,
3.3933,202.2,161.7,-150.9,-51.6,59.1,-23.1,97.2,0,0,6108,0,65,0,
3.3967,200.7,165.6,-146.1,-48.0,61.5,-21.9,98.7,0,0,6114,0,66,0,
3.4000,198.0,149.1,-160.2,-62.1,56.1,-26.4,85.5,0,0,6120,0,67,0,
3.4033,196.5,152.7,-158.1,-61.2,54.6,-25.5,84.0,0,0,6126,0,68,0,
3.4067,194.4,161.7,-149.4,-55.5,59.4,-20.1,94.5,0,0,6132,0,69,0,
3.4100,196.2,168.3,-150.0,-49.8,60.9,-21.3,96.3,0,0,6138,0,70,0,
3.4133,199.8,163.5,-153.3,-46.5,60.0,-20.4,99.6,0,0,6144,0,71,0,
3.4167,201.3,152.1,-152.4,-53.1,57.9,-23.7,92.4,0,0,6150,0,72,0,
3.4200,201.3,156.3,-160.8,-62.1,57.3,-21.0,90.9,0,0,6156,0,73,0,
3.4233,197.7,157.8,-152.7,-58.8,58.8,-23.1,92.7,0,0,6162,0,74,0,
3.4267,187.5,170.4,-152.1,-51.3,64.8,-20.1,94.8,0,0,6168,0,75,0,
3.4300,183.6,168.6,-147.9,-45.3,63.6,-21.0,92.4,0,0,6174,0,76,0,
3.4333,193.5,163.2,-153.9,-53.4,56.4,-19.8,99.9,0,0,6180,0,77,0,
3.4367,205.5,164.4,-150.3,-52.5,59.1,-18.9,102.3,0,0,6186,0,78,0,
3.4400,190.2,168.0,-153.9,-51.0,53.4,-21.3,90.9,0,0,6192,0,79,0,
3.4433,188.7,172.2,-145.5,-43.8,60.9,-22.2,91.5,0,0,6198,0,80,0,
3.4467,204.9,183.3,-140.1,-40.2,62.7,-14.4,104.4,0,0,6204,0,81,0,
3.4500,211.2,178.5,-145.2,-49.5,66.6,-8.1,110.4,0,0,6210,0,82,0,
3.4533,207.0,172.5,-148.5,-56.7,65.1,-13.2,100.5,0,0,6216,0,83,0,
3.4567,203.4,174.9,-145.2,-52.5,68.7,-10.8,103.5,0,0,6222,0,84,0,
3.4600,198.6,169.5,-150.0,-51.9,66.3,-16.2,99.9,0,0,6228,0,85,0,
3.4633,199.2,168.0,-150.9,-56.1,66.6,-16.5,96.0,0,0,6234,0,86,0,
3.4667,196.8,165.0,-155.1,-58.8,65.7,-17.1,92.7,0,0,6240,0,87,0,
3.4700,208.2,171.0,-146.4,-55.8,65.4,-10.5,102.9,0,0,6246,0,88,0,
3.4733,199.8,170.7,-143.4,-54.9,62.1,-15.3,100.5,0,0,6252,0,89,0,
3.4767,197.4,169.8,-151.8,-54.3,63.3,-16.5,95.4,0,0,6258,0,90,0,
3.4800,195.0,165.0,-151.8,-56.1,62.1,-15.6,99.3,0,0,6264,0,91,0,
3.4833,194.7,161.4,-154.5,-65.4,60.6,-19.2,94.5,0,0,6270,0,92,0,
3.4867,197.1,166.2,-149.7,-57.6,60.9,-21.6,92.4,0,0,6276,0,93,0,
3.4900,197.1,165.0,-158.4,-62.1,60.9,-22.8,95.4,0,0,6282,0,94,0,
3.4933,187.2,166.2,-155.4,-60.6,60.0,-24.0,93.0,0,0,6288,0,95,0,
3.4967,192.6,174.0,-153.3,-55.8,62.1,-24.0,98.4,0,0,6294,0,96,0,
3.5000,198.3,166.2,-152.1,-60.3,62.4,-20.1,99.9,0,0,6300,0,97,0,
3.5033,204.0,171.3,-149.7,-57.9,60.6,-16.5,105.0,0,0,6306,0,98,0,
3.5067,201.3,176.4,-146.4,-57.3,63.6,-15.6,105.3,0,0,6312,0,99,0,
3.5100,191.1,172.8,-153.0,-60.6,60.6,-21.3,96.3,0,0,6318,0,100,0,
3.5133,200.7,177.3,-144.3,-53.4,61.8,-19.2,103.8,0,0,6324,0,101,0,
3.5167,204.3,177.9,-142.2,-54.9,64.8,-17.7,102.3,0,0,6330,0,102,0,
3.5200,206.1,177.3,-141.0,-52.2,63.0,-13.5,105.9,0,0,6336,0,103,0,
3.5233,197.1,167.4,-151.2,-55.5,62.1,-20.4,99.3,0,0,6342,0,104,0,
3.5267,209.1,177.3,-140.7,-45.6,61.8,-19.2,98.7,0,0,6348,0,105,0,
3.5300,203.4,170.7,-148.8,-50.7,58.5,-19.5,95.7,0,0,6354,0,106,0,
3.5333,204.0,178.2,-144.0,-52.2,57.3,-19.5,102.9,0,0,6360,0,107,0,
3.5367,201.3,186.0,-136.5,-48.6,55.8,-19.2,102.3,0,0,6366,0,108,0,
3.5400,191.1,179.7,-140.1,-56.1,53.4,-23.7,101.7,0,0,6372,0,109,0,
3.5433,195.9,171.3,-144.0,-50.7,53.7,-23.7,99.3,0,0,6378,0,110,0,
3.5467,198.0,177.3,-137.4,-48.9,54.0,-26.1,98.4,0,0,6384,0,111,0,
3.5500,196.8,171.3,-139.5,-51.3,55.2,-25.5,99.0,0,0,6390,0,112,0,
3.5533,206.7,172.2,-140.4,-48.6,60.3,-21.9,102.9,0,0,6396,0,113,0,
3.5567,203.4,175.2,-139.8,-51.0,60.9,-22.8,99.9,0,0,6402,0,114,0,
3.5600,197.1,171.0,-146.7,-56.7,56.7,-25.2,92.4,0,0,6408,0,115,0,
3.5633,181.8,161.1,-157.8,-63.0,60.3,-25.2,91.8,0,0,6414,0,116,0,
3.5667,187.2,161.7,-159.6,-63.9,57.0,-26.4,93.6,0,0,6420,0,117,0,
3.5700,189.0,171.6,-155.4,-60.3,63.6,-19.5,108.6,0,0,6426,0,118,0,
3.5733,187.8,168.6,-155.1,-58.8,57.9,-22.2,100.5,0,0,6432,0,119,0,
3.5767,192.9,164.7,-161.1,-57.3,61.5,-28.5,91.2,0,0,6438,0,120,0,
3.5800,179.4,171.3,-158.7,-58.5,54.0,-35.1,89.7,0,0,6444,0,121,0,
3.5833,181.2,181.2,-158.7,-60.0,58.8,-28.8,104.4,0,0,6450,0,122,0,
3.5867,179.7,177.0,-156.0,-55.5,56.7,-27.9,108.6,0,0,6456,0,123,0,
3.5900,185.1,162.9,-164.4,-58.8,56.7,-27.3,107.4,0,0,6462,0,124,0,
3.5933,180.9,164.4,-161.7,-61.2,54.9,-33.6,105.6,0,0,6468,0,125,0,
3.5967,181.5,171.3,-155.1,-61.5,54.9,-32.7,108.0,0,0,6474,0,126,0,
3.6000,177.3,175.5,-159.0,-62.4,55.2,-29.7,111.0,0,0,6480,0,127,0,
3.6033,182.7,187.5,-149.1,-54.0,61.5,-25.8,115.5,0,0,6486,0,128,0,
3.6067,180.9,195.0,-148.5,-52.8,61.5,-24.9,111.3,0,0,6492,0,129,0,
3.6100,183.0,196.8,-144.3,-51.0,62.1,-23.1,109.2,0,0,6498,0,130,0,
3.6133,182.7,179.7,-155.1,-54.0,61.8,-28.5,112.5,0,0,6504,0,131,0,
3.6167,187.2,193.2,-147.0,-54.3,65.4,-23.4,120.9,0,0,6510,0,132,0,
3.6200,186.0,193.5,-142.2,-52.2,62.4,-20.4,120.0,0,0,6516,0,133,0,
3.6233,182.1,189.0,-146.7,-56.1,61.5,-25.2,115.2,0,0,6522,0,134,0,
3.6267,183.6,183.9,-149.4,-59.4,63.0,-25.8,113.4,0,0,6528,0,135,0,
3.6300,182.1,183.9,-150.6,-61.8,60.3,-30.6,106.2,0,0,6534,0,136,0,
3.6333,179.7,197.1,-150.3,-57.9,60.6,-23.7,109.2,0,0,6540,0,137,0,
3.6367,171.6,178.5,-158.7,-62.1,57.9,-29.7,106.2,0,0,6546,0,138,0,
3.6400,167.4,182.1,-151.2,-63.6,54.6,-31.5,103.5,0,0,6552,0,139,0,
3.6433,170.7,174.0,-160.2,-66.0,54.3,-31.2,105.3,0,0,6558,0,140,0,
3.6467,175.2,169.5,-155.4,-63.9,53.7,-28.5,111.6,0,0,6564,0,141,0,
3.6500,165.9,182.7,-148.8,-57.6,56.7,-29.7,113.7,0,0,6570,0,142,0,
3.6533,169.8,179.7,-153.3,-59.1,58.2,-28.2,116.1,0,0,6576,0,143,0,
3.6567,161.4,185.4,-154.5,-65.1,56.1,-31.2,112.5,0,0,6582,0,144,0,
3.6600,165.3,175.2,-150.6,-66.6,55.2,-32.4,107.4,0,0,6588,0,145,0,
3.6633,170.1,186.9,-151.8,-66.0,52.2,-30.3,106.5,0,0,6594,0,146,0,
3.6667,164.1,186.3,-148.8,-63.0,53.1,-30.3,110.1,0,0,6600,0,147,0,
3.6700,168.3,193.8,-146.7,-57.6,56.1,-27.9,108.6,0,0,6606,0,148,0,
3.6733,165.0,177.9,-152.1,-62.4,52.2,-31.8,110.1,0,0,6612,0,149,0,
3.6767,159.0,170.1,-156.3,-69.3,45.9,-38.1,100.5,0,0,6618,0,150,0,
3.6800,165.0,171.0,-152.7,-65.4,50.7,-33.9,106.2,0,0,6624,0,151,0,
3.6833,159.9,177.9,-150.3,-66.3,51.9,-33.3,110.1,0,0,6630,0,152,0,
3.6867,164.7,172.2,-155.4,-62.7,50.1,-35.7,104.7,0,0,6636,0,153,0,
3.6900,163.8,176.1,-158.1,-63.0,50.4,-38.1,100.8,0,0,6642,0,154,0,
3.6933,161.1,177.0,-151.2,-67.2,57.6,-36.6,101.4,0,0,6648,0,155,0,
3.6967,162.3,174.6,-156.0,-67.2,54.6,-37.2,90.9,0,0,6654,0,156,0,
3.7000,168.6,169.8,-152.4,-62.7,60.3,-31.8,100.2,0,0,6660,0,157,0,
3.7033,168.3,168.0,-155.7,-63.9,58.5,-28.5,99.0,0,0,6666,0,158,0,
3.7067,175.2,168.9,-155.7,-65.7,56.4,-29.4,96.0,0,0,6672,0,159,0,
3.7100,176.7,172.2,-157.2,-71.1,58.2,-27.9,99.9,0,0,6678,0,160,0,
3.7133,169.5,168.9,-153.3,-68.4,54.0,-34.8,100.5,0,0,6684,0,161,0,
3.7167,167.7,180.0,-153.0,-65.4,56.1,-34.2,102.3,0,0,6690,0,162,0,
3.7200,171.6,175.5,-156.6,-63.0,57.0,-37.2,107.1,0,0,6696,0,163,0,
3.7233,177.0,179.1,-148.8,-61.8,60.3,-30.6,108.0,0,0,6702,0,164,0,
3.7267,180.9,180.6,-150.6,-64.5,61.5,-29.7,102.6,0,0,6708,0,165,0,
3.7300,180.9,170.1,-150.6,-65.4,60.6,-29.4,104.1,0,0,6714,0,166,0,
3.7333,178.2,178.8,-153.0,-66.3,59.1,-30.0,109.2,0,0,6720,0,167,0,
3.7367,177.6,178.2,-150.9,-65.7,58.5,-30.9,108.0,0,0,6726,0,168,0,
3.7400,178.8,179.1,-149.4,-69.6,57.6,-32.1,103.8,0,0,6732,0,169,0,
3.7433,179.1,169.8,-152.4,-73.2,54.9,-38.1,91.5,0,0,6738,0,170,0,
3.7467,178.8,170.7,-153.3,-73.2,56.4,-38.4,96.6,0,0,6744,0,171,0,
3.7500,170.4,168.3,-154.8,-68.7,56.7,-41.4,91.5,0,0,6750,0,172,0,
3.7533,167.7,171.3,-154.5,-64.8,55.2,-47.4,89.7,0,0,6756,0,173,0,
3.7567,181.8,169.8,-153.0,-63.3,53.1,-44.7,91.2,0,0,6762,0,174,0,
3.7600,174.9,171.9,-150.9,-68.1,53.4,-42.0,95.1,0,0,6768,0,175,0,
3.7633,167.7,165.6,-158.4,-74.1,47.1,-45.3,90.0,0,0,6774,0,176,0,
3.7667,161.4,175.8,-153.0,-63.9,50.4,-43.2,89.7,0,0,6780,0,177,0,
3.7700,174.3,179.1,-155.1,-60.0,51.9,-43.5,87.9,0,0,6786,0,178,0,
3.7733,166.5,176.1,-152.7,-64.5,51.3,-42.6,87.9,0,0,6792,0,179,0,
3.7767,173.1,171.9,-155.7,-68.7,48.6,-45.3,87.0,0,0,6798,0,180,0,
3.7800,165.3,174.6,-156.9,-72.6,46.8,-45.9,87.0,0,0,6804,0,181,0,
3.7833,167.4,182.7,-150.0,-57.9,54.9,-40.5,86.4,0,0,6810,0,182,0,
3.7867,165.9,174.6,-152.4,-59.4,52.2,-38.7,93.9,0,0,6816,0,183,0,
3.7900,172.2,173.1,-153.3,-66.0,54.6,-37.2,93.9,0,0,6822,0,184,0,
3.7933,173.4,164.7,-151.5,-66.9,54.0,-37.5,97.8,0,0,6828,0,185,0,
3.7967,168.3,177.0,-150.3,-66.9,57.0,-33.6,103.2,0,0,6834,0,186,0,
3.8000,173.4,187.8,-149.7,-65.7,54.9,-33.3,106.5,0,0,6840,0,187,0,
3.8033,180.3,182.7,-147.9,-56.1,58.8,-35.1,105.6,0,0,6846,0,188,0,
3.8067,175.5,181.8,-146.7,-58.2,56.7,-35.7,103.8,0,0,6852,0,189,0,
3.8100,162.9,169.8,-159.0,-71.1,51.3,-38.7,97.2,0,0,6858,0,190,0,
3.8133,168.6,165.3,-155.4,-69.3,53.7,-35.4,97.8,0,0,6864,0,191,0,
3.8167,166.5,176.1,-149.1,-60.0,53.7,-39.0,97.8,0,0,6870,0,192,0,
3.8200,165.6,163.5,-156.9,-63.9,54.9,-36.9,93.9,0,0,6876,0,193,0,
3.8233,168.6,169.5,-151.8,-64.5,54.9,-36.6,95.4,0,0,6882,0,194,0,
3.8267,162.9,167.4,-154.2,-68.4,56.7,-36.0,97.2,0,0,6888,0,195,0,
3.8300,169.5,159.6,-161.1,-75.3,55.8,-37.5,90.9,0,0,6894,0,196,0,
3.8333,163.8,165.9,-159.6,-68.4,54.9,-37.5,95.4,0,0,6900,0,197,0,
3.8367,165.9,178.5,-153.0,-66.3,56.7,-34.8,107.7,0,0,6906,0,198,0,
3.8400,165.0,183.0,-155.1,-71.1,54.0,-37.2,98.4,0,0,6912,0,199,0,
3.8433,160.2,167.1,-158.4,-77.4,52.8,-34.8,98.1,0,0,6918,0,200,0,
3.8467,161.4,163.2,-161.7,-77.7,53.7,-37.5,95.1,0,0,6924,0,201,0,
3.8500,162.3,170.4,-157.2,-70.5,54.3,-40.2,94.5,0,0,6930,0,202,0,
3.8533,160.8,170.4,-156.3,-71.4,56.1,-38.1,94.2,0,0,6936,0,203,0,
3.8567,160.2,167.7,-161.1,-76.2,54.0,-37.2,90.0,0,0,6942,0,204,0,
3.8600,164.1,159.3,-159.6,-73.8,54.3,-39.6,87.0,0,0,6948,0,205,0,
3.8633,161.1,168.0,-157.5,-74.1,56.4,-37.2,90.0,0,0,6954,0,206,0,
3.8667,167.4,171.6,-157.5,-68.1,55.2,-34.8,95.1,0,0,6960,0,207,0,
3.8700,158.1,174.9,-157.2,-69.0,53.1,-39.3,92.4,0,0,6966,0,208,0,
3.8733,161.7,181.8,-151.5,-69.6,53.1,-38.1,100.5,0,0,6972,0,209,0,
3.8767,158.7,181.8,-157.2,-72.9,52.2,-38.1,104.7,0,0,6978,0,210,0,
3.8800,156.3,165.3,-153.0,-76.2,50.7,-39.3,90.6,0,0,6984,0,211,0,
3.8833,153.0,185.7,-158.1,-72.3,54.3,-35.7,102.0,0,0,6990,0,212,0,
3.8867,155.1,195.0,-153.9,-69.3,54.0,-36.9,105.3,0,0,6996,0,213,0,
3.8900,154.2,197.4,-151.2,-68.1,54.6,-30.3,108.9,0,0,7002,0,214,0,
3.8933,157.2,181.2,-151.2,-70.5,52.5,-32.1,110.1,0,0,7008,0,215,0,
3.8967,153.3,175.2,-160.5,-78.0,52.2,-37.5,97.8,0,0,7014,0,216,0,
3.9000,143.1,187.8,-152.4,-72.6,53.1,-38.7,101.7,0,0,7020,0,217,0,
3.9033,138.3,183.9,-157.2,-70.5,51.3,-37.2,104.7,0,0,7026,0,218,0,
3.9067,154.8,190.2,-152.4,-67.5,57.9,-28.5,120.6,0,0,7032,0,219,0,
3.9100,147.0,180.3,-160.2,-75.9,53.7,-32.7,113.4,0,0,7038,0,220,0,
3.9133,154.8,195.3,-154.5,-70.8,54.9,-29.7,118.8,0,0,7044,0,221,0,
3.9167,150.0,215.7,-144.6,-64.8,60.6,-21.6,128.1,0,0,7050,0,222,0,
3.9200,152.4,201.6,-148.8,-65.7,53.7,-26.4,122.7,0,0,7056,0,223,0,
3.9233,148.5,200.7,-147.0,-66.0,54.3,-26.4,119.1,0,0,7062,0,224,0,
3.9267,151.8,195.0,-157.8,-75.0,54.6,-27.9,126.9,0,0,7068,0,225,0,
3.9300,146.1,202.8,-151.5,-75.9,54.6,-26.7,125.4,0,0,7074,0,226,0,
3.9333,150.9,210.3,-144.9,-64.8,61.2,-18.9,136.2,0,0,7080,0,227,0,
3.9367,153.6,214.2,-141.0,-62.4,61.8,-20.1,135.6,0,0,7086,0,228,0,
3.9400,147.6,201.0,-149.4,-71.1,58.8,-21.0,130.5,0,0,7092,0,229,0,
3.9433,149.7,201.0,-151.2,-77.1,57.9,-22.5,115.5,0,0,7098,0,230,0,
3.9467,140.1,198.0,-150.3,-76.2,57.3,-24.3,119.4,0,0,7104,0,231,0,
3.9500,138.0,199.5,-152.4,-72.3,60.6,-22.8,127.8,0,0,7110,0,232,0,
3.9533,137.4,210.0,-144.0,-70.2,57.0,-27.0,126.3,0,0,7116,0,233,0,
3.9567,139.2,200.7,-151.8,-76.5,58.5,-24.6,125.1,0,0,7122,0,234,0,
3.9600,131.7,214.2,-146.4,-78.3,48.0,-32.4,122.1,0,0,7128,0,235,0,
3.9633,139.5,190.5,-156.6,-81.0,48.6,-29.4,119.4,0,0,7134,0,236,0,
3.9667,131.1,191.4,-146.4,-69.6,50.7,-31.8,116.7,0,0,7140,0,237,0,
3.9700,137.7,201.3,-153.6,-71.4,56.1,-26.7,124.5,0,0,7146,0,238,0,
3.9733,141.3,200.1,-150.9,-68.4,51.6,-26.7,123.3,0,0,7152,0,239,0,
3.9767,130.5,193.5,-154.5,-77.1,51.3,-30.6,111.0,0,0,7158,0,240,0,
3.9800,139.8,194.4,-149.7,-75.6,52.5,-28.2,109.5,0,0,7164,0,241,0,
3.9833,135.0,206.1,-152.4,-75.0,51.3,-31.5,114.3,0,0,7170,0,242,0,
3.9867,143.1,212.7,-144.9,-69.0,52.2,-25.2,123.9,0,0,7176,0,243,0,
3.9900,138.3,203.4,-151.5,-75.0,54.3,-24.9,126.3,0,0,7182,0,244,0,
3.9933,138.6,198.6,-152.7,-75.9,57.3,-26.7,119.4,0,0,7188,0,245,0,
3.9967,134.7,187.2,-154.5,-76.8,52.8,-32.1,115.2,0,0,7194,0,246,0,
4.0000,128.1,198.6,-155.1,-70.8,50.1,-30.0,118.8,0,0,7200,0,247,0,
4.0033,121.8,195.9,-156.0,-70.8,57.6,-30.9,121.5,0,0,7206,0,248,0,
4.0067,129.9,209.4,-153.6,-74.1,56.7,-27.3,120.9,0,0,7212,0,249,0,
4.0100,137.1,194.1,-159.0,-80.4,55.8,-30.3,115.8,0,0,7218,0,250,0,
4.0133,125.4,195.9,-156.3,-78.9,53.1,-33.0,111.0,0,0,7224,0,251,0,
4.0167,129.9,197.4,-153.3,-72.6,53.4,-33.9,108.6,0,0,7230,0,252,0,
4.0200,138.0,201.6,-153.6,-71.7,53.7,-31.5,114.0,0,0,7236,0,253,0,
4.0233,151.8,188.7,-155.4,-75.9,54.9,-25.8,115.8,0,0,7242,0,254,0,
4.0267,157.8,198.6,-154.2,-74.7,54.3,-26.4,115.2,0,0,7248,0,255,0,
4.0300,159.9,198.6,-147.3,-67.5,60.6,-19.5,122.4,0,0,7254,0,0,0,
4.0333,156.3,206.4,-146.7,-64.2,60.9,-24.0,112.8,0,0,7260,0,1,0,
4.0367,150.3,199.8,-151.8,-65.7,60.0,-23.1,113.1,0,0,7266,0,2,0,
4.0400,158.4,191.1,-155.1,-66.6,60.6,-22.5,108.3,0,0,7272,0,3,0,
4.0433,161.4,201.0,-155.1,-68.4,61.2,-25.8,114.9,0,0,7278,0,4,0,
4.0467,156.0,179.4,-159.0,-70.5,55.5,-24.6,112.2,0,0,7284,0,5,0,
4.0500,158.7,183.0,-151.2,-67.2,57.3,-24.0,114.0,0,0,7290,0,6,0,
4.0533,161.1,189.6,-149.4,-61.2,60.9,-21.9,111.9,0,0,7296,0,7,0,
4.0567,168.3,193.8,-152.7,-61.8,63.6,-26.4,105.3,0,0,7302,0,8,0,
4.0600,159.3,192.3,-155.4,-69.6,54.3,-28.5,99.9,0,0,7308,0,9,0,
4.0633,165.3,186.9,-152.4,-70.2,58.2,-25.8,101.4,0,0,7314,0,10,0,
4.0667,166.2,171.3,-158.7,-61.5,58.8,-24.3,108.9,0,0,7320,0,11,0,
4.0700,167.7,182.7,-157.5,-61.5,56.1,-25.2,106.2,0,0,7326,0,12,0,
4.0733,164.1,179.4,-159.6,-68.4,55.5,-29.7,99.9,0,0,7332,0,13,0,
4.0767,170.7,170.7,-159.6,-72.3,54.3,-29.1,97.8,0,0,7338,0,14,0,
4.0800,161.7,174.0,-159.9,-68.1,55.2,-27.3,108.9,0,0,7344,0,15,0,
4.0833,167.4,179.1,-157.8,-65.7,57.6,-25.2,102.9,0,0,7350,0,16,0,
4.0867,158.1,180.6,-158.4,-61.8,57.0,-30.3,105.9,0,0,7356,0,17,0,
4.0900,162.3,181.8,-160.5,-64.5,52.5,-30.9,101.4,0,0,7362,0,18,0,
4.0933,167.4,168.3,-164.1,-76.2,55.8,-30.3,97.5,0,0,7368,0,19,0,
4.0967,167.4,183.9,-154.8,-69.6,56.4,-27.3,99.9,0,0,7374,0,20,0,
4.1000,174.9,177.9,-153.3,-63.3,62.7,-18.3,116.7,0,0,7380,0,21,0,
4.1033,172.2,166.5,-159.3,-66.0,60.0,-23.4,102.6,0,0,7386,0,22,0,
4.1067,177.9,174.0,-155.7,-68.1,62.1,-22.2,101.1,0,0,7392,0,23,0,
4.1100,177.6,165.9,-165.9,-77.7,51.6,-28.5,100.5,0,0,7398,0,24,0,
4.1133,178.8,171.6,-160.5,-75.0,54.0,-28.8,104.7,0,0,7404,0,25,0,
4.1167,170.4,182.1,-156.3,-66.0,55.2,-28.8,103.2,0,0,7410,0,26,0,
4.1200,171.3,169.8,-164.4,-69.3,54.6,-32.4,99.0,0,0,7416,0,27,0,
4.1233,171.0,165.9,-163.8,-78.3,54.9,-31.2,96.6,0,0,7422,0,28,0,
4.1267,176.1,168.0,-163.5,-78.3,57.0,-31.2,98.7,0,0,7428,0,29,0,
4.1300,168.0,155.4,-168.0,-81.0,51.3,-36.6,87.6,0,0,7434,0,30,0,
4.1333,168.6,161.4,-166.5,-76.5,50.4,-37.5,85.8,0,0,7440,0,31,0,
4.1367,164.1,160.2,-168.6,-76.8,51.0,-39.6,87.0,0,0,7446,0,32,0,
4.1400,169.8,164.4,-168.9,-81.6,49.2,-45.3,83.1,0,0,7452,0,33,0,
4.1433,168.6,158.7,-170.1,-86.4,48.0,-44.7,81.0,0,0,7458,0,34,0,
4.1467,171.0,151.8,-171.0,-81.9,49.5,-44.7,84.0,0,0,7464,0,35,0,
4.1500,165.6,150.3,-173.7,-80.4,50.1,-43.8,81.9,0,0,7470,0,36,0,
4.1533,171.0,155.1,-171.3,-78.3,49.2,-45.9,81.3,0,0,7476,0,37,0,
4.1567,167.4,153.3,-172.8,-87.0,45.6,-49.8,78.6,0,0,7482,0,38,0,
4.1600,170.1,150.3,-174.6,-86.7,48.0,-47.4,76.2,0,0,7488,0,39,0,
4.1633,170.1,154.8,-174.6,-84.9,48.0,-47.1,80.4,0,0,7494,0,40,0,
4.1667,168.3,169.5,-168.9,-76.2,53.7,-42.3,87.6,0,0,7500,0,41,0,
4.1700,169.2,169.2,-170.4,-81.0,52.8,-36.0,93.0,0,0,7506,0,42,0,
4.1733,173.1,166.5,-168.6,-77.4,53.7,-41.4,90.9,0,0,7512,0,43,0,
4.1767,168.6,152.1,-171.3,-83.1,54.9,-35.1,87.9,0,0,7518,0,44,0,
4.1800,171.3,151.2,-175.5,-85.5,54.9,-39.0,92.4,0,0,7524,0,45,0,
4.1833,164.7,150.6,-172.2,-79.2,59.1,-33.3,90.3,0,0,7530,0,46,0,
4.1867,178.8,169.2,-166.8,-71.4,53.4,-33.6,96.9,0,0,7536,0,47,0,
4.1900,175.2,168.9,-168.3,-73.2,51.9,-36.0,93.3,0,0,7542,0,48,0,
4.1933,174.6,175.2,-163.8,-79.5,51.6,-36.9,90.6,0,0,7548,0,49,0,
4.1967,176.7,174.0,-166.5,-78.3,52.2,-38.4,90.3,0,0,7554,0,50,0,
4.2000,171.0,153.0,-166.2,-70.5,50.4,-36.9,94.2,0,0,7560,0,51,0,
4.2033,164.4,147.3,-175.2,-76.5,48.6,-41.7,89.1,0,0,7566,0,52,0,
4.2067,163.5,146.1,-176.7,-79.5,50.4,-45.9,81.9,0,0,7572,0,53,0,
4.2100,144.3,140.1,-186.3,-88.8,45.6,-46.8,77.7,0,0,7578,0,54,0,
4.2133,151.8,147.6,-184.2,-84.3,43.5,-43.8,84.3,0,0,7584,0,55,0,
4.2167,156.0,155.7,-177.3,-79.2,41.7,-44.4,86.1,0,0,7590,0,56,0,
4.2200,163.2,160.2,-176.4,-76.8,45.0,-44.1,88.2,0,0,7596,0,57,0,
4.2233,164.1,153.6,-177.3,-84.9,43.2,-48.6,81.6,0,0,7602,0,58,0,
4.2267,169.8,150.0,-178.5,-83.7,46.8,-42.0,83.1,0,0,7608,0,59,0,
4.2300,169.8,163.2,-171.6,-88.2,45.9,-38.7,86.4,0,0,7614,0,60,0,
4.2333,166.8,164.7,-173.4,-85.5,48.0,-36.0,93.9,0,0,7620,0,61,0,
4.2367,166.8,174.3,-169.2,-76.2,50.1,-36.0,100.8,0,0,7626,0,62,0,
4.2400,161.4,168.0,-170.7,-76.8,48.9,-39.0,102.6,0,0,7632,0,63,0,
4.2433,159.0,158.1,-177.6,-87.0,44.7,-44.1,90.6,0,0,7638,0,64,0,
4.2467,153.3,153.9,-182.7,-88.2,44.4,-43.2,89.4,0,0,7644,0,65,0,
4.2500,157.5,166.2,-171.9,-77.1,50.1,-39.9,95.1,0,0,7650,0,66,0,
4.2533,151.5,181.5,-173.1,-76.8,49.2,-44.1,102.9,0,0,7656,0,67,0,
4.2567,147.6,180.6,-173.1,-81.6,49.2,-42.6,101.7,0,0,7662,0,68,0,
4.2600,140.1,174.9,-174.0,-86.1,43.8,-43.2,100.2,0,0,7668,0,69,0,
4.2633,147.3,176.7,-171.6,-82.5,44.4,-43.8,98.7,0,0,7674,0,70,0,
4.2667,144.6,177.6,-172.2,-78.6,45.3,-40.5,105.6,0,0,7680,0,71,0,
4.2700,145.8,179.4,-170.7,-72.3,45.9,-40.2,111.0,0,0,7686,0,72,0,
4.2733,145.2,178.8,-175.5,-76.2,43.8,-42.3,109.8,0,0,7692,0,73,0,
4.2767,139.8,187.5,-169.8,-74.7,43.2,-38.7,117.6,0,0,7698,0,74,0,
4.2800,137.4,182.4,-171.3,-80.1,45.6,-42.3,111.0,0,0,7704,0,75,0,
4.2833,134.1,188.4,-171.6,-71.7,45.0,-43.2,113.1,0,0,7710,0,76,0,
4.2867,134.4,196.2,-163.8,-67.8,49.8,-41.1,119.4,0,0,7716,0,77,0,
4.2900,140.7,190.2,-165.0,-70.8,49.2,-39.0,123.9,0,0,7722,0,78,0,
4.2933,127.2,183.3,-170.1,-75.9,49.8,-41.7,118.5,0,0,7728,0,79,0,
4.2967,129.6,181.8,-172.8,-73.5,49.2,-36.3,122.4,0,0,7734,0,80,0,
4.3000,135.3,190.5,-168.9,-68.7,53.4,-38.4,123.0,0,0,7740,0,81,0,
4.3033,135.0,201.3,-164.1,-69.6,51.3,-39.3,122.7,0,0,7746,0,82,0,
4.3067,138.9,189.3,-165.6,-70.2,48.6,-39.3,123.6,0,0,7752,0,83,0,
4.3100,148.2,193.8,-162.9,-72.0,45.9,-41.4,123.6,0,0,7758,0,84,0,
4.3133,144.3,197.7,-159.3,-73.2,49.8,-34.5,127.8,0,0,7764,0,85,0,
4.3167,146.7,207.3,-150.9,-68.7,54.0,-33.3,130.8,0,0,7770,0,86,0,
4.3200,144.0,201.0,-152.7,-65.1,53.4,-35.4,133.5,0,0,7776,0,87,0,
4.3233,143.7,186.6,-161.1,-70.2,50.4,-39.9,127.8,0,0,7782,0,88,0,
4.3267,135.3,190.5,-164.1,-72.6,46.8,-44.1,120.0,0,0,7788,0,89,0,
4.3300,138.0,189.3,-161.4,-75.3,49.2,-42.9,113.7,0,0,7794,0,90,0,
4.3333,137.4,192.9,-161.4,-72.3,49.2,-42.6,118.5,0,0,7800,0,91,0,
4.3367,132.0,189.0,-161.4,-70.2,51.6,-37.2,122.4,0,0,7806,0,92,0,
4.3400,135.9,175.2,-167.1,-75.0,48.3,-37.2,114.3,0,0,7812,0,93,0,
4.3433,129.0,162.6,-174.9,-81.0,46.5,-44.1,109.2,0,0,7818,0,94,0,
4.3467,125.7,160.2,-168.9,-82.2,45.0,-43.5,105.9,0,0,7824,0,95,0,
4.3500,129.3,175.8,-168.0,-79.5,45.6,-42.9,108.9,0,0,7830,0,96,0,
4.3533,131.7,177.6,-170.4,-75.3,43.5,-44.4,106.8,0,0,7836,0,97,0,
4.3567,129.0,180.0,-166.8,-72.9,46.8,-41.4,108.9,0,0,7842,0,98,0,
4.3600,135.3,168.6,-172.5,-81.6,39.3,-49.5,93.0,0,0,7848,0,99,0,
4.3633,132.6,164.7,-171.3,-78.6,43.2,-42.9,93.3,0,0,7854,0,100,0,
4.3667,135.0,163.2,-166.5,-72.6,48.0,-41.4,103.8,0,0,7860,0,101,0,
4.3700,140.7,163.8,-169.5,-71.7,50.7,-36.0,102.9,0,0,7866,0,102,0,
4.3733,145.2,167.1,-164.1,-73.5,52.8,-39.9,103.2,0,0,7872,0,103,0,
4.3767,144.6,169.5,-165.0,-74.1,53.1,-36.9,104.4,0,0,7878,0,104,0,
4.3800,150.9,175.8,-158.7,-72.0,52.5,-34.5,104.7,0,0,7884,0,105,0,
4.3833,140.1,180.0,-161.4,-70.5,52.8,-38.4,100.5,0,0,7890,0,106,0,
4.3867,151.2,181.5,-157.5,-64.5,51.6,-35.1,101.7,0,0,7896,0,107,0,
4.3900,150.9,170.4,-160.2,-72.3,53.7,-37.8,105.9,0,0,7902,0,108,0,
4.3933,156.6,165.9,-161.7,-75.3,47.7,-38.1,102.0,0,0,7908,0,109,0,
4.3967,155.4,177.0,-156.6,-73.8,52.5,-35.7,104.1,0,0,7914,0,110,0,
4.4000,158.1,174.0,-159.3,-69.3,54.3,-34.8,103.8,0,0,7920,0,111,0,
4.4033,159.3,169.8,-159.6,-66.9,51.9,-34.5,108.6,0,0,7926,0,112,0,
4.4067,160.2,173.7,-156.3,-69.9,51.6,-34.8,107.4,0,0,7932,0,113,0,
4.4100,158.4,166.2,-164.4,-81.3,49.5,-29.4,98.1,0,0,7938,0,114,0,
4.4133,160.5,176.7,-157.5,-82.2,51.6,-33.6,103.8,0,0,7944,0,115,0,
4.4167,148.2,179.7,-158.1,-74.7,51.0,-38.7,96.3,0,0,7950,0,116,0,
4.4200,152.4,157.8,-164.1,-72.0,51.3,-35.7,100.2,0,0,7956,0,117,0,
4.4233,151.5,160.5,-164.7,-78.3,50.7,-36.3,103.2,0,0,7962,0,118,0,
4.4267,146.7,158.4,-168.6,-78.0,52.5,-40.8,92.7,0,0,7968,0,119,0,
4.4300,152.1,149.7,-163.5,-74.4,52.2,-39.0,96.3,0,0,7974,0,120,0,
4.4333,156.0,163.2,-160.8,-67.5,54.9,-39.3,92.7,0,0,7980,0,121,0,
4.4367,151.8,171.0,-161.4,-69.0,48.9,-37.2,98.4,0,0,7986,0,122,0,
4.4400,154.5,160.8,-165.0,-72.9,45.6,-40.5,93.9,0,0,7992,0,123,0,
4.4433,153.3,164.7,-164.1,-76.8,46.8,-36.0,94.5,0,0,7998,0,124,0,
4.4467,159.3,153.6,-161.7,-74.4,50.4,-32.4,90.3,0,0,8004,0,125,0,
4.4500,156.9,155.1,-161.1,-74.1,50.4,-37.2,89.4,0,0,8010,0,126,0,
4.4533,163.2,165.0,-155.4,-69.3,47.1,-42.6,99.9,0,0,8016,0,127,0,
4.4567,156.6,165.0,-158.7,-74.4,44.4,-45.3,94.2,0,0,8022,0,128,0,
4.4600,161.1,163.2,-156.3,-74.1,46.2,-43.5,93.3,0,0,8028,0,129,0,
4.4633,159.0,166.8,-153.6,-75.6,49.2,-38.7,98.7,0,0,8034,0,130,0,
4.4667,160.8,185.1,-151.5,-70.2,45.3,-43.2,96.9,0,0,8040,0,131,0,
4.4700,154.2,167.7,-156.3,-70.8,43.5,-45.6,89.7,0,0,8046,0,132,0,
4.4733,150.6,150.0,-160.5,-76.8,43.8,-44.1,87.0,0,0,8052,0,133,0,
4.4767,152.4,151.2,-166.2,-77.4,45.3,-42.6,89.4,0,0,8058,0,134,0,
4.4800,158.7,154.5,-161.7,-73.8,46.2,-40.2,87.3,0,0,8064,0,135,0,
4.4833,162.0,159.9,-161.7,-73.2,48.9,-40.8,85.5,0,0,8070,0,136,0,
4.4867,150.6,166.2,-161.1,-72.3,45.0,-40.8,89.4,0,0,8076,0,137,0,
4.4900,155.7,158.1,-162.3,-77.7,47.1,-43.2,84.3,0,0,8082,0,138,0,
4.4933,155.7,146.1,-166.5,-82.8,45.9,-40.2,79.8,0,0,8088,0,139,0,
4.4967,154.2,149.7,-166.8,-82.2,45.9,-49.2,74.1,0,0,8094,0,140,0,
4.5000,154.8,165.9,-160.5,-75.6,48.0,-47.1,83.4,0,0,8100,0,141,0,
4.5033,155.7,148.2,-165.9,-75.3,49.2,-41.4,86.7,0,0,8106,0,142,0,
4.5067,160.8,155.4,-160.8,-72.6,42.6,-45.9,85.5,0,0,8112,0,143,0,
4.5100,167.1,156.0,-165.3,-72.9,49.2,-45.9,88.8,0,0,8118,0,144,0,
4.5133,164.4,166.8,-158.7,-72.0,47.1,-43.2,90.3,0,0,8124,0,145,0,
4.5167,167.4,175.8,-150.6,-65.4,53.1,-39.0,94.2,0,0,8130,0,146,0,
4.5200,172.8,172.5,-147.6,-61.5,55.2,-38.7,101.4,0,0,8136,0,147,0,
4.5233,167.1,170.4,-153.3,-67.8,56.7,-37.5,90.3,0,0,8142,0,148,0,
4.5267,182.1,149.7,-158.7,-74.1,57.0,-36.0,93.6,0,0,8148,0,149,0,
4.5300,174.3,155.7,-156.6,-79.2,51.0,-36.3,93.3,0,0,8154,0,150,0,
4.5333,168.9,172.2,-150.6,-69.0,52.5,-37.2,96.3,0,0,8160,0,151,0,
4.5367,164.4,179.1,-144.6,-69.0,52.8,-33.6,94.8,0,0,8166,0,152,0,
4.5400,165.3,154.8,-155.4,-73.8,45.6,-37.2,88.2,0,0,8172,0,153,0,
4.5433,166.8,150.9,-162.9,-75.9,42.9,-52.5,77.1,0,0,8178,0,154,0,
4.5467,164.1,156.9,-159.9,-76.2,47.1,-43.2,86.4,0,0,8184,0,155,0,
4.5500,167.4,164.4,-157.8,-71.7,55.8,-39.0,97.2,0,0,8190,0,156,0,
4.5533,164.1,174.6,-153.6,-69.0,51.9,-40.5,96.0,0,0,8196,0,157,0,
4.5567,164.1,163.2,-164.4,-76.2,52.8,-45.9,89.7,0,0,8202,0,158,0,
4.5600,176.7,149.1,-167.7,-84.0,54.3,-41.4,85.5,0,0,8208,0,159,0,
4.5633,173.1,154.8,-168.0,-78.9,55.5,-42.6,86.7,0,0,8214,0,160,0,
4.5667,164.7,153.9,-167.7,-75.0,56.4,-37.5,86.7,0,0,8220,0,161,0,
4.5700,165.6,162.0,-163.2,-69.9,57.9,-37.5,93.6,0,0,8226,0,162,0,
4.5733,176.1,160.2,-164.1,-75.0,56.4,-39.0,91.2,0,0,8232,0,163,0,
4.5767,174.0,172.5,-162.3,-79.2,57.3,-39.3,93.9,0,0,8238,0,164,0,
4.5800,168.0,166.8,-161.7,-80.4,53.7,-41.1,87.3,0,0,8244,0,165,0,
4.5833,169.8,153.0,-166.8,-74.4,52.8,-42.9,92.4,0,0,8250,0,166,0,
4.5867,161.1,160.2,-165.9,-75.3,54.0,-45.0,85.8,0,0,8256,0,167,0,
4.5900,166.2,150.3,-171.0,-81.3,51.6,-39.3,91.2,0,0,8262,0,168,0,
4.5933,168.0,147.9,-171.9,-82.5,51.0,-44.1,86.7,0,0,8268,0,169,0,
4.5967,165.3,149.7,-168.6,-80.1,51.0,-42.3,81.6,0,0,8274,0,170,0,
4.6000,167.1,159.9,-165.9,-75.6,54.6,-37.8,85.5,0,0,8280,0,171,0,
4.6033,168.9,142.2,-175.5,-75.3,53.7,-38.7,85.8,0,0,8286,0,172,0,
4.6067,156.3,141.0,-179.7,-82.2,51.9,-41.4,75.6,0,0,8292,0,173,0,
4.6100,166.8,138.9,-175.8,-85.5,50.4,-36.9,78.9,0,0,8298,0,174,0,
4.6133,171.3,149.1,-167.7,-82.2,50.1,-29.4,88.2,0,0,8304,0,175,0,
4.6167,176.7,151.8,-167.4,-78.0,51.9,-32.7,97.5,0,0,8310,0,176,0,
4.6200,171.3,157.5,-162.9,-76.8,50.1,-38.1,93.3,0,0,8316,0,177,0,
4.6233,178.2,156.9,-163.5,-77.1,50.7,-33.6,100.5,0,0,8322,0,178,0,
4.6267,169.8,162.6,-165.6,-78.0,48.3,-37.5,91.8,0,0,8328,0,179,0,
4.6300,170.7,144.3,-168.3,-80.1,49.8,-36.0,91.5,0,0,8334,0,180,0,
4.6333,174.6,152.1,-161.7,-70.8,51.6,-36.9,87.0,0,0,8340,0,181,0,
4.6367,176.7,147.9,-167.4,-72.0,47.7,-36.9,83.7,0,0,8346,0,182,0,
4.6400,171.0,149.1,-166.2,-75.3,52.8,-34.2,84.9,0,0,8352,0,183,0,
4.6433,174.9,139.8,-173.4,-85.8,49.8,-35.1,77.7,0,0,8358,0,184,0,
4.6467,166.2,147.0,-167.1,-85.2,48.9,-34.2,80.1,0,0,8364,0,185,0,
4.6500,176.1,153.0,-166.5,-78.3,51.0,-41.7,83.4,0,0,8370,0,186,0,
4.6533,166.2,153.0,-168.9,-77.7,47.7,-41.1,83.1,0,0,8376,0,187,0,
4.6567,168.3,158.7,-169.5,-81.3,50.4,-38.1,83.1,0,0,8382,0,188,0,
4.6600,173.7,155.4,-168.6,-84.6,50.1,-35.1,80.7,0,0,8388,0,189,0,
4.6633,184.2,153.0,-168.9,-81.3,54.3,-34.8,92.1,0,0,8394,0,190,0,
4.6667,170.7,153.3,-167.1,-76.2,57.0,-35.1,90.0,0,0,8400,0,191,0,
4.6700,165.9,152.7,-168.0,-79.2,54.0,-40.2,80.1,0,0,8406,0,192,0,
4.6733,171.0,159.0,-165.0,-78.9,52.5,-39.0,84.3,0,0,8412,0,193,0,
4.6767,179.1,154.5,-165.6,-82.2,54.9,-36.3,90.9,0,0,8418,0,194,0,
4.6800,177.9,153.6,-163.5,-78.9,54.6,-37.2,91.8,0,0,8424,0,195,0,
4.6833,166.2,166.5,-154.8,-74.4,56.1,-36.3,96.9,0,0,8430,0,196,0,
4.6867,177.6,173.4,-150.6,-65.1,59.4,-28.5,96.3,0,0,8436,0,197,0,
4.6900,182.4,170.4,-155.7,-72.3,55.5,-35.7,95.7,0,0,8442,0,198,0,
4.6933,184.8,168.6,-160.5,-75.9,54.0,-35.1,93.6,0,0,8448,0,199,0,
4.6967,179.1,164.1,-159.9,-75.6,53.1,-30.6,99.0,0,0,8454,0,200,0,
4.7000,176.7,155.1,-165.9,-70.8,54.9,-36.9,96.6,0,0,8460,0,201,0,
4.7033,168.6,153.3,-165.3,-74.7,50.1,-43.8,91.2,0,0,8466,0,202,0,
4.7067,176.4,150.6,-168.6,-75.9,53.4,-41.4,89.1,0,0,8472,0,203,0,
4.7100,172.5,159.6,-166.8,-80.4,49.5,-37.8,93.0,0,0,8478,0,204,0,
4.7133,175.2,138.6,-167.1,-80.4,52.2,-40.2,91.5,0,0,8484,0,205,0,
4.7167,169.5,162.6,-162.0,-69.9,51.6,-41.1,92.4,0,0,8490,0,206,0,
4.7200,172.2,167.4,-161.4,-69.3,49.5,-42.9,93.0,0,0,8496,0,207,0,
4.7233,172.8,154.5,-169.5,-75.9,45.0,-38.7,83.7,0,0,8502,0,208,0,
4.7267,176.7,149.4,-168.3,-79.5,42.9,-51.6,86.7,0,0,8508,0,209,0,
4.7300,159.9,155.1,-168.0,-81.9,42.3,-51.0,82.2,0,0,8514,0,210,0,
4.7333,175.2,162.0,-163.8,-75.0,50.1,-42.3,87.6,0,0,8520,0,211,0,
4.7367,168.6,169.2,-159.3,-75.0,47.1,-45.0,83.7,0,0,8526,0,212,0,
4.7400,169.2,153.9,-168.9,-84.0,42.0,-53.7,76.8,0,0,8532,0,213,0,
4.7433,171.3,150.9,-169.5,-89.7,44.1,-45.9,79.8,0,0,8538,0,214,0,
4.7467,176.4,147.9,-168.3,-82.5,44.1,-43.8,78.9,0,0,8544,0,215,0,
4.7500,172.5,147.3,-165.3,-76.8,48.9,-42.6,81.9,0,0,8550,0,216,0,
4.7533,173.1,153.0,-169.8,-75.0,50.4,-42.9,78.9,0,0,8556,0,217,0,
4.7567,163.2,149.1,-172.5,-79.2,46.5,-46.5,74.1,0,0,8562,0,218,0,
4.7600,160.2,144.3,-175.2,-85.2,41.4,-57.9,66.3,0,0,8568,0,219,0,
4.7633,159.0,146.7,-175.8,-85.2,42.6,-53.1,67.2,0,0,8574,0,220,0,
4.7667,152.7,152.4,-171.0,-78.0,46.8,-53.4,67.5,0,0,8580,0,221,0,
4.7700,157.2,146.4,-172.5,-79.2,42.3,-52.2,72.6,0,0,8586,0,222,0,
4.7733,167.1,160.2,-164.4,-72.9,42.6,-53.7,71.1,0,0,8592,0,223,0,
4.7767,160.8,166.2,-162.6,-74.7,43.5,-48.6,77.4,0,0,8598,0,224,0,
4.7800,167.7,145.2,-169.8,-80.7,44.7,-46.2,71.1,0,0,8604,0,225,0,
4.7833,162.6,153.0,-166.2,-72.6,45.6,-46.2,78.6,0,0,8610,0,226,0,
4.7867,159.9,162.6,-161.1,-73.5,43.8,-48.0,83.1,0,0,8616,0,227,0,
4.7900,168.0,162.0,-164.4,-75.6,47.7,-44.7,88.8,0,0,8622,0,228,0,
4.7933,166.2,158.1,-165.9,-79.8,43.2,-48.9,83.1,0,0,8628,0,229,0,
4.7967,178.8,163.5,-159.6,-77.7,45.9,-43.5,86.4,0,0,8634,0,230,0,
4.8000,175.8,178.5,-155.1,-75.0,45.3,-44.4,86.7,0,0,8640,0,231,0,
4.8033,172.5,164.7,-153.9,-75.9,46.8,-48.3,90.6,0,0,8646,0,232,0,
4.8067,169.8,170.1,-154.2,-76.2,47.7,-47.4,89.4,0,0,8652,0,233,0,
4.8100,177.0,142.5,-161.7,-84.0,45.9,-48.9,79.8,0,0,8658,0,234,0,
4.8133,168.3,160.8,-157.8,-82.5,50.4,-44.1,88.2,0,0,8664,0,235,0,
4.8167,162.0,165.3,-158.4,-78.3,47.7,-46.8,85.5,0,0,8670,0,236,0,
4.8200,162.9,167.1,-153.9,-72.6,49.5,-45.3,90.0,0,0,8676,0,237,0,
4.8233,164.4,152.7,-156.3,-76.2,56.4,-38.7,79.5,0,0,8682,0,238,0,
4.8267,169.2,141.0,-170.7,-87.0,48.9,-52.2,72.0,0,0,8688,0,239,0,
4.8300,160.8,146.4,-167.7,-90.0,50.1,-47.4,73.2,0,0,8694,0,240,0,
4.8333,162.6,148.5,-162.9,-79.2,52.8,-44.7,84.3,0,0,8700,0,241,0,
4.8367,159.0,162.0,-162.3,-75.9,55.8,-46.5,79.8,0,0,8706,0,242,0,
4.8400,161.7,153.0,-161.4,-76.2,51.6,-51.3,74.1,0,0,8712,0,243,0,
4.8433,160.5,150.6,-165.6,-82.8,48.6,-54.6,72.3,0,0,8718,0,244,0,
4.8467,162.3,157.8,-167.7,-84.0,50.4,-52.2,78.3,0,0,8724,0,245,0,
4.8500,162.9,158.4,-161.1,-78.6,53.4,-50.7,78.9,0,0,8730,0,246,0,
4.8533,162.0,167.7,-156.9,-72.3,52.2,-48.3,82.8,0,0,8736,0,247,0,
4.8567,165.0,155.4,-162.0,-78.3,48.9,-51.9,78.0,0,0,8742,0,248,0,
4.8600,172.8,153.9,-163.2,-82.8,52.5,-50.1,82.2,0,0,8748,0,249,0,
4.8633,167.1,149.7,-163.5,-80.4,51.0,-51.0,84.0,0,0,8754,0,250,0,
4.8667,156.3,145.2,-162.3,-77.4,46.2,-56.1,71.7,0,0,8760,0,251,0,
4.8700,166.2,152.7,-162.3,-72.6,49.2,-53.7,76.5,0,0,8766,0,252,0,
4.8733,173.7,154.2,-163.2,-80.1,49.8,-50.4,77.4,0,0,8772,0,253,0,
4.8767,169.5,148.5,-165.3,-82.8,45.0,-55.2,75.0,0,0,8778,0,254,0,
4.8800,167.1,153.9,-162.9,-85.2,48.0,-47.1,74.4,0,0,8784,0,255,0,
4.8833,164.7,159.9,-158.7,-73.2,47.7,-49.8,82.2,0,0,8790,0,0,0,
4.8867,174.6,162.0,-159.0,-70.8,48.0,-54.3,82.5,0,0,8796,0,1,0,
4.8900,175.2,160.8,-162.0,-75.9,47.4,-51.6,85.2,0,0,8802,0,2,0,
4.8933,175.8,155.7,-164.1,-79.2,51.6,-51.3,84.3,0,0,8808,0,3,0,
4.8967,168.9,162.3,-156.6,-77.4,47.1,-49.5,81.3,0,0,8814,0,4,0,
4.9000,171.3,174.3,-149.1,-68.7,52.8,-43.2,88.2,0,0,8820,0,5,0,
4.9033,174.9,152.7,-165.0,-77.1,49.5,-49.8,83.7,0,0,8826,0,6,0,
4.9067,169.2,165.9,-154.8,-77.4,53.4,-44.7,89.1,0,0,8832,0,7,0,
4.9100,175.8,153.3,-158.4,-80.7,47.1,-45.6,78.3,0,0,8838,0,8,0,
4.9133,180.9,154.5,-159.9,-78.6,56.1,-42.6,79.2,0,0,8844,0,9,0,
4.9167,173.7,150.3,-159.0,-76.8,57.0,-42.3,79.5,0,0,8850,0,10,0,
4.9200,170.1,150.6,-161.1,-77.7,51.0,-49.5,81.0,0,0,8856,0,11,0,
4.9233,163.8,137.7,-171.6,-88.2,45.3,-49.8,69.9,0,0,8862,0,12,0,
4.9267,166.5,148.8,-168.3,-84.0,45.9,-51.0,75.6,0,0,8868,0,13,0,
4.9300,174.0,143.7,-161.1,-81.6,43.8,-52.5,77.4,0,0,8874,0,14,0,
4.9333,171.6,161.7,-160.2,-78.0,51.0,-46.8,87.0,0,0,8880,0,15,0,
4.9367,184.5,169.5,-151.8,-71.4,51.9,-46.5,88.8,0,0,8886,0,16,0,
4.9400,176.1,171.0,-153.3,-75.6,46.5,-47.1,83.4,0,0,8892,0,17,0,
4.9433,183.3,160.2,-155.7,-78.3,47.1,-45.9,81.9,0,0,8898,0,18,0,
4.9467,179.1,145.5,-163.5,-79.5,46.8,-44.7,79.2,0,0,8904,0,19,0,
4.9500,176.1,154.2,-157.8,-75.3,48.3,-45.9,77.1,0,0,8910,0,20,0,
4.9533,175.8,145.8,-159.6,-79.8,45.6,-45.0,80.1,0,0,8916,0,21,0,
4.9567,171.6,147.3,-155.4,-74.7,48.3,-45.0,79.5,0,0,8922,0,22,0,
4.9600,181.2,138.3,-162.6,-81.3,49.8,-46.2,82.2,0,0,8928,0,23,0,
4.9633,174.3,145.2,-159.6,-78.9,49.2,-44.1,78.9,0,0,8934,0,24,0,
4.9667,174.3,161.1,-147.0,-75.0,49.8,-48.3,86.4,0,0,8940,0,25,0,
4.9700,180.3,162.9,-153.0,-69.6,52.8,-41.1,81.9,0,0,8946,0,26,0,
4.9733,182.4,158.7,-152.1,-73.2,50.7,-48.0,84.3,0,0,8952,0,27,0,
4.9767,180.6,163.5,-155.1,-79.2,50.1,-48.6,77.7,0,0,8958,0,28,0,
4.9800,171.9,150.6,-153.6,-79.8,47.7,-51.6,71.7,0,0,8964,0,29,0,
4.9833,174.6,154.2,-155.1,-70.8,51.0,-48.9,75.6,0,0,8970,0,30,0,
4.9867,177.9,165.9,-149.4,-66.6,47.4,-46.2,79.8,0,0,8976,0,31,0,
4.9900,181.8,156.6,-153.3,-76.5,47.7,-46.8,82.2,0,0,8982,0,32,0,
4.9933,179.1,156.0,-151.5,-79.2,46.8,-47.1,84.9,0,0,8988,0,33,0,
4.9967,174.0,162.0,-146.4,-78.6,45.0,-45.6,84.0,0,0,8994,0,34,0,
5.0000,170.1,168.6,-152.7,-72.6,51.0,-43.2,82.8,0,0,9000,0,35,0,
5.0033,173.1,173.1,-149.4,-69.9,49.2,-48.3,76.8,0,0,9006,0,36,0,
5.0067,170.4,151.8,-157.5,-76.8,43.8,-51.6,73.8,0,0,9012,0,37,0,
5.0100,167.1,135.9,-164.4,-80.7,42.0,-54.9,71.7,0,0,9018,0,38,0,
5.0133,162.6,144.9,-152.4,-76.5,46.5,-52.5,77.4,0,0,9024,0,39,0,
5.0167,169.5,160.8,-150.0,-69.0,46.5,-53.1,77.1,0,0,9030,0,40,0,
5.0200,174.9,178.8,-144.6,-66.3,56.7,-38.4,85.5,0,0,9036,0,41,0,
5.0233,178.8,165.3,-149.7,-68.4,47.7,-44.1,92.1,0,0,9042,0,42,0,
5.0267,185.1,164.1,-151.5,-73.2,47.1,-42.3,86.7,0,0,9048,0,43,0,
5.0300,181.5,166.5,-149.4,-71.4,48.6,-41.1,88.5,0,0,9054,0,44,0,
5.0333,179.7,172.5,-146.4,-66.9,47.1,-43.5,86.1,0,0,9060,0,45,0,
5.0367,183.3,174.6,-146.4,-64.2,50.1,-42.0,88.5,0,0,9066,0,46,0,
5.0400,183.6,170.4,-147.0,-69.9,49.8,-40.5,83.7,0,0,9072,0,47,0,
5.0433,186.3,159.3,-151.2,-73.8,50.1,-35.4,86.4,0,0,9078,0,48,0,
5.0467,183.6,155.7,-151.8,-72.9,51.0,-39.6,82.8,0,0,9084,0,49,0,
5.0500,175.8,164.4,-150.3,-71.7,49.8,-39.0,87.3,0,0,9090,0,50,0,
5.0533,177.3,166.8,-152.4,-72.3,50.7,-42.9,82.2,0,0,9096,0,51,0,
5.0567,177.6,162.9,-153.9,-72.0,52.5,-39.0,87.3,0,0,9102,0,52,0,
5.0600,173.4,161.1,-155.4,-75.6,49.8,-45.0,81.9,0,0,9108,0,53,0,
5.0633,172.2,152.7,-156.3,-79.2,46.2,-44.4,80.1,0,0,9114,0,54,0,
5.0667,180.0,165.6,-147.9,-71.4,51.9,-36.3,89.7,0,0,9120,0,55,0,
5.0700,178.5,154.8,-152.7,-72.0,50.4,-36.9,88.2,0,0,9126,0,56,0,
5.0733,178.8,158.1,-149.4,-70.2,49.5,-41.1,92.4,0,0,9132,0,57,0,
5.0767,181.5,159.3,-148.8,-69.6,48.3,-36.9,79.8,0,0,9138,0,58,0,
5.0800,185.1,156.9,-153.9,-72.9,51.0,-34.8,87.0,0,0,9144,0,59,0,
5.0833,171.3,163.5,-152.4,-69.0,50.7,-35.1,85.2,0,0,9150,0,60,0,
5.0867,175.5,171.3,-150.6,-72.3,51.3,-35.4,83.1,0,0,9156,0,61,0,
5.0900,177.0,173.4,-152.4,-73.5,52.8,-33.6,79.8,0,0,9162,0,62,0,
5.0933,177.6,148.2,-161.4,-78.9,47.1,-39.6,78.3,0,0,9168,0,63,0,
5.0967,179.7,150.9,-157.5,-74.1,48.6,-39.3,81.0,0,0,9174,0,64,0,
5.1000,175.5,151.2,-161.1,-79.5,47.4,-42.3,81.3,0,0,9180,0,65,0,
5.1033,169.8,160.2,-158.1,-77.1,51.0,-39.9,85.2,0,0,9186,0,66,0,
5.1067,175.2,158.4,-158.4,-74.4,50.4,-38.1,86.1,0,0,9192,0,67,0,
5.1100,172.5,152.7,-158.7,-82.2,44.4,-45.0,77.4,0,0,9198,0,68,0,
5.1133,165.9,155.1,-156.3,-80.7,46.2,-45.0,78.3,0,0,9204,0,69,0,
5.1167,171.6,154.5,-160.2,-79.2,48.9,-42.3,85.5,0,0,9210,0,70,0,
5.1200,165.6,150.9,-163.5,-77.4,48.6,-46.5,79.8,0,0,9216,0,71,0,
5.1233,160.8,148.5,-165.0,-80.7,48.6,-44.1,73.8,0,0,9222,0,72,0,
5.1267,168.3,138.0,-170.4,-87.0,47.7,-44.7,69.9,0,0,9228,0,73,0,
5.1300,172.5,141.3,-162.6,-85.8,51.9,-36.3,82.8,0,0,9234,0,74,0,
5.1333,174.9,155.7,-153.9,-73.5,55.5,-34.5,90.0,0,0,9240,0,75,0,
5.1367,173.4,155.4,-155.7,-75.3,50.4,-39.3,87.3,0,0,9246,0,76,0,
5.1400,170.4,153.9,-158.4,-81.6,48.0,-43.8,74.4,0,0,9252,0,77,0,
5.1433,167.4,151.5,-160.8,-87.3,47.1,-42.3,76.8,0,0,9258,0,78,0,
5.1467,175.2,155.1,-164.1,-81.3,47.7,-42.9,80.1,0,0,9264,0,79,0,
5.1500,170.7,152.4,-158.7,-78.9,51.9,-32.4,84.0,0,0,9270,0,80,0,
5.1533,179.1,156.0,-156.3,-72.9,52.2,-39.9,81.6,0,0,9276,0,81,0,
5.1567,177.6,150.9,-161.1,-79.5,49.2,-43.2,82.2,0,0,9282,0,82,0,
5.1600,182.4,153.6,-158.1,-84.6,42.3,-43.2,78.3,0,0,9288,0,83,0,
5.1633,188.1,158.4,-157.8,-79.8,47.4,-38.4,88.5,0,0,9294,0,84,0,
5.1667,179.7,166.5,-153.0,-74.7,47.1,-40.5,87.0,0,0,9300,0,85,0,
5.1700,178.2,166.8,-148.5,-68.7,53.7,-38.1,89.7,0,0,9306,0,86,0,
5.1733,175.8,176.7,-147.0,-69.3,49.5,-40.8,81.6,0,0,9312,0,87,0,
5.1767,176.7,159.6,-158.1,-75.3,47.4,-41.1,83.4,0,0,9318,0,88,0,
5.1800,178.2,171.3,-154.5,-77.7,50.7,-39.0,80.4,0,0,9324,0,89,0,
5.1833,180.9,171.3,-148.5,-71.4,53.7,-33.9,94.8,0,0,9330,0,90,0,
5.1867,175.2,160.2,-151.5,-72.6,53.1,-40.5,79.8,0,0,9336,0,91,0,
5.1900,183.3,162.0,-155.7,-77.4,50.7,-41.7,80.4,0,0,9342,0,92,0,
5.1933,177.9,168.6,-149.4,-74.4,49.2,-39.9,85.5,0,0,9348,0,93,0,
5.1967,183.6,160.8,-153.6,-72.0,48.0,-37.5,83.1,0,0,9354,0,94,0,
5.2000,182.7,167.1,-152.7,-71.4,50.4,-38.1,89.7,0,0,9360,0,95,0,
5.2033,180.9,163.8,-151.5,-68.7,49.5,-40.8,90.0,0,0,9366,0,96,0,
5.2067,179.7,165.0,-152.4,-76.8,46.8,-39.0,86.1,0,0,9372,0,97,0,
5.2100,182.4,164.1,-156.0,-82.2,46.5,-38.1,82.5,0,0,9378,0,98,0,
5.2133,181.5,171.3,-152.1,-78.0,50.1,-35.1,89.4,0,0,9384,0,99,0,
5.2167,181.2,163.8,-150.9,-77.1,49.8,-34.2,92.1,0,0,9390,0,100,0,
5.2200,183.0,159.6,-157.2,-80.4,52.8,-35.4,89.1,0,0,9396,0,101,0,
5.2233,180.3,159.6,-152.1,-80.1,52.2,-38.4,83.7,0,0,9402,0,102,0,
5.2267,174.9,158.4,-160.5,-87.6,50.1,-45.6,77.1,0,0,9408,0,103,0,
5.2300,179.4,140.7,-163.2,-85.2,47.7,-44.7,86.4,0,0,9414,0,104,0,
5.2333,172.8,158.1,-153.6,-76.5,51.9,-39.9,84.6,0,0,9420,0,105,0,
5.2367,177.0,153.0,-153.6,-78.0,48.6,-42.6,83.1,0,0,9426,0,106,0,
5.2400,171.9,155.4,-156.9,-81.9,47.7,-42.9,84.3,0,0,9432,0,107,0,
5.2433,178.2,154.8,-152.1,-82.2,48.3,-42.9,84.3,0,0,9438,0,108,0,
5.2467,171.6,139.8,-160.5,-88.5,47.1,-47.7,78.9,0,0,9444,0,109,0,
5.2500,169.8,156.9,-149.4,-80.4,50.1,-46.2,81.3,0,0,9450,0,110,0,
5.2533,171.0,159.3,-156.6,-81.3,53.1,-40.5,88.2,0,0,9456,0,111,0,
5.2567,171.9,162.9,-156.0,-79.5,50.7,-40.2,85.8,0,0,9462,0,112,0,
5.2600,177.3,144.3,-159.3,-85.2,48.3,-43.8,79.8,0,0,9468,0,113,0,
5.2633,173.1,145.2,-158.7,-86.1,46.8,-47.7,78.6,0,0,9474,0,114,0,
5.2667,169.5,147.0,-156.3,-79.2,49.8,-46.8,78.9,0,0,9480,0,115,0,
5.2700,176.1,162.6,-154.5,-79.2,51.3,-43.8,95.7,0,0,9486,0,116,0,
5.2733,185.7,165.9,-146.7,-78.6,51.9,-37.2,96.3,0,0,9492,0,117,0,
5.2767,186.6,160.2,-156.9,-84.3,51.3,-34.2,90.6,0,0,9498,0,118,0,
5.2800,187.8,164.7,-151.2,-84.9,51.6,-39.6,78.9,0,0,9504,0,119,0,
5.2833,171.9,176.1,-146.4,-81.9,49.8,-39.9,83.4,0,0,9510,0,120,0,
5.2867,177.3,162.3,-152.1,-80.7,50.7,-39.9,80.4,0,0,9516,0,121,0,
5.2900,175.5,159.6,-153.3,-83.1,48.0,-42.6,82.5,0,0,9522,0,122,0,
5.2933,174.9,150.0,-156.0,-84.6,46.5,-47.7,71.4,0,0,9528,0,123,0,
5.2967,174.6,151.5,-155.4,-82.8,46.8,-48.9,76.5,0,0,9534,0,124,0,
5.3000,176.7,166.8,-149.1,-72.9,51.3,-42.3,86.1,0,0,9540,0,125,0,
5.3033,176.7,161.7,-151.2,-75.9,47.7,-44.7,84.6,0,0,9546,0,126,0,
5.3067,176.7,154.5,-154.2,-77.4,50.4,-42.0,86.4,0,0,9552,0,127,0,
5.3100,176.7,151.5,-156.3,-84.6,47.7,-49.5,75.3,0,0,9558,0,128,0,
5.3133,179.4,154.2,-153.3,-80.4,51.9,-42.9,78.0,0,0,9564,0,129,0,
5.3167,172.2,170.7,-146.1,-71.1,51.3,-44.7,77.7,0,0,9570,0,130,0,
5.3200,176.4,160.2,-154.8,-73.8,51.9,-45.9,75.9,0,0,9576,0,131,0,
5.3233,172.2,152.1,-157.5,-78.9,50.7,-49.5,72.9,0,0,9582,0,132,0,
5.3267,180.0,157.8,-154.5,-78.0,50.4,-45.9,71.7,0,0,9588,0,133,0,
5.3300,178.5,157.5,-150.9,-73.5,53.4,-45.0,72.3,0,0,9594,0,134,0,
5.3333,180.0,160.2,-148.8,-67.2,57.0,-42.6,79.2,0,0,9600,0,135,0,
5.3367,183.6,162.6,-148.8,-69.6,57.6,-39.9,81.0,0,0,9606,0,136,0,
5.3400,174.3,147.0,-156.0,-75.3,54.9,-41.7,79.5,0,0,9612,0,137,0,
5.3433,173.7,146.7,-158.1,-77.4,54.6,-42.0,75.9,0,0,9618,0,138,0,
5.3467,174.9,161.7,-149.7,-74.7,55.5,-39.6,78.0,0,0,9624,0,139,0,
5.3500,172.2,162.6,-150.0,-71.7,56.4,-36.6,84.3,0,0,9630,0,140,0,
5.3533,167.4,145.5,-153.9,-74.7,53.7,-43.2,81.3,0,0,9636,0,141,0,
5.3567,168.3,142.5,-160.8,-81.0,55.5,-43.2,83.4,0,0,9642,0,142,0,
5.3600,169.2,135.0,-164.4,-87.6,48.3,-49.8,70.2,0,0,9648,0,143,0,
5.3633,169.5,146.4,-157.2,-80.4,52.5,-45.3,76.2,0,0,9654,0,144,0,
5.3667,165.0,149.4,-156.0,-76.2,49.5,-44.1,73.8,0,0,9660,0,145,0,
5.3700,174.9,156.6,-150.9,-73.8,47.7,-43.2,73.8,0,0,9666,0,146,0,
5.3733,159.3,159.0,-154.2,-77.1,45.6,-48.0,69.9,0,0,9672,0,147,0,
5.3767,168.9,139.5,-156.6,-80.4,48.6,-43.8,72.9,0,0,9678,0,148,0,
5.3800,165.0,139.5,-156.0,-76.2,49.2,-46.5,71.7,0,0,9684,0,149,0,
5.3833,160.2,147.3,-155.7,-71.7,49.8,-45.0,79.8,0,0,9690,0,150,0,
5.3867,160.5,149.4,-156.9,-73.5,51.9,-45.6,74.7,0,0,9696,0,151,0,
5.3900,165.3,147.0,-160.8,-74.4,49.2,-47.1,76.2,0,0,9702,0,152,0,
5.3933,160.2,147.3,-157.5,-81.9,44.4,-51.9,66.3,0,0,9708,0,153,0,
5.3967,165.9,153.0,-157.5,-81.9,48.6,-49.5,67.8,0,0,9714,0,154,0,
5.4000,168.0,151.5,-156.3,-79.2,45.9,-48.9,69.0,0,0,9720,0,155,0,
5.4033,167.1,159.0,-155.4,-75.0,49.2,-43.8,68.4,0,0,9726,0,156,0,
5.4067,179.7,147.9,-150.3,-76.8,50.7,-40.2,77.4,0,0,9732,0,157,0,
5.4100,176.1,138.9,-157.2,-87.6,50.1,-40.8,71.4,0,0,9738,0,158,0,
5.4133,171.6,149.7,-153.9,-82.2,51.3,-43.2,75.0,0,0,9744,0,159,0,
5.4167,170.4,160.5,-151.8,-74.7,52.2,-41.7,78.3,0,0,9750,0,160,0,
5.4200,170.1,165.3,-149.4,-72.3,51.3,-35.7,88.8,0,0,9756,0,161,0,
5.4233,173.7,161.1,-148.8,-72.6,45.6,-40.5,75.0,0,0,9762,0,162,0,
5.4267,171.3,154.5,-157.2,-81.0,48.0,-41.1,74.4,0,0,9768,0,163,0,
5.4300,173.7,155.4,-155.7,-81.3,47.1,-38.7,68.7,0,0,9774,0,164,0,
5.4333,169.2,161.1,-154.5,-74.7,50.1,-42.3,75.3,0,0,9780,0,165,0,
5.4367,171.0,153.9,-151.2,-71.4,47.4,-42.0,73.5,0,0,9786,0,166,0,
5.4400,166.5,153.3,-162.0,-78.3,44.7,-42.6,71.7,0,0,9792,0,167,0,
5.4433,165.6,143.7,-162.0,-82.2,45.9,-45.3,62.1,0,0,9798,0,168,0,
5.4467,161.4,149.4,-162.3,-85.5,45.6,-48.0,64.8,0,0,9804,0,169,0,
5.4500,156.0,161.1,-158.1,-76.8,46.5,-47.4,70.2,0,0,9810,0,170,0,
5.4533,158.4,157.8,-157.5,-77.7,43.8,-49.8,66.6,0,0,9816,0,171,0,
5.4567,168.0,153.9,-160.5,-83.4,45.9,-44.7,70.2,0,0,9822,0,172,0,
5.4600,167.4,145.2,-161.1,-87.3,41.4,-47.1,65.4,0,0,9828,0,173,0,
5.4633,174.0,147.0,-156.9,-81.6,47.7,-37.2,73.8,0,0,9834,0,174,0,
5.4667,172.5,158.7,-152.7,-72.0,48.3,-41.4,75.3,0,0,9840,0,175,0,
5.4700,170.4,163.8,-153.9,-71.7,53.7,-37.2,78.6,0,0,9846,0,176,0,
5.4733,168.3,160.8,-153.9,-74.7,49.8,-42.9,79.2,0,0,9852,0,177,0,
5.4767,164.7,147.6,-162.6,-79.8,44.4,-45.6,67.2,0,0,9858,0,178,0,
5.4800,168.6,147.3,-159.0,-81.6,44.4,-46.2,69.3,0,0,9864,0,179,0,
5.4833,169.2,155.7,-153.3,-69.3,47.7,-42.6,72.9,0,0,9870,0,180,0,
5.4867,161.1,161.4,-153.3,-75.0,45.0,-48.0,69.3,0,0,9876,0,181,0,
5.4900,160.2,150.6,-157.8,-79.8,46.2,-45.9,62.7,0,0,9882,0,182,0,
5.4933,171.6,138.9,-158.1,-81.3,46.8,-44.1,65.1,0,0,9888,0,183,0,
5.4967,169.8,145.2,-154.2,-77.1,47.7,-40.8,71.4,0,0,9894,0,184,0,
5.5000,179.1,156.9,-147.9,-70.5,51.6,-33.0,77.4,0,0,9900,0,185,0,
5.5033,170.7,158.1,-147.9,-71.4,48.3,-36.9,76.5,0,0,9906,0,186,0,
5.5067,176.1,149.1,-154.2,-75.9,49.5,-39.0,80.1,0,0,9912,0,187,0,
5.5100,165.0,156.3,-156.3,-79.5,45.9,-44.7,69.3,0,0,9918,0,188,0,
5.5133,162.6,144.0,-160.8,-83.1,44.7,-48.0,70.5,0,0,9924,0,189,0,
5.5167,174.3,156.6,-153.6,-75.3,50.7,-40.8,79.2,0,0,9930,0,190,0,
5.5200,170.4,159.6,-157.8,-76.2,47.7,-43.8,79.5,0,0,9936,0,191,0,
5.5233,171.3,152.7,-157.5,-80.1,46.5,-45.3,73.5,0,0,9942,0,192,0,
5.5267,177.0,151.5,-153.9,-84.6,46.5,-41.1,72.9,0,0,9948,0,193,0,
5.5300,168.6,140.4,-157.5,-84.3,45.6,-43.5,67.2,0,0,9954,0,194,0,
5.5333,162.0,149.4,-153.6,-77.4,50.1,-43.5,63.9,0,0,9960,0,195,0,
5.5367,157.2,144.9,-159.6,-84.3,49.8,-44.4,62.4,0,0,9966,0,196,0,
5.5400,164.7,146.1,-153.0,-83.4,47.4,-41.7,63.9,0,0,9972,0,197,0,
5.5433,174.6,145.8,-153.0,-80.7,46.8,-39.9,67.5,0,0,9978,0,198,0,
5.5467,169.8,143.1,-155.1,-81.9,44.1,-41.1,57.6,0,0,9984,0,199,0,
5.5500,170.4,154.8,-154.5,-76.8,43.5,-44.4,61.8,0,0,9990,0,200,0,
5.5533,165.9,157.2,-156.3,-77.1,43.8,-42.0,66.6,0,0,9996,0,201,0,
5.5567,171.3,147.9,-155.4,-75.9,45.3,-41.4,71.7,0,0,10002,0,202,0,
5.5600,174.9,150.0,-154.5,-79.8,44.7,-42.3,73.5,0,0,10008,0,203,0,
5.5633,174.9,147.9,-156.0,-81.0,42.6,-45.0,67.2,0,0,10014,0,204,0,
5.5667,168.3,150.3,-158.7,-75.6,47.1,-42.3,68.7,0,0,10020,0,205,0,
5.5700,165.0,142.8,-160.8,-79.8,44.4,-48.0,62.1,0,0,10026,0,206,0,
5.5733,172.8,144.6,-160.2,-80.4,47.4,-43.2,67.2,0,0,10032,0,207,0,
5.5767,171.9,142.2,-160.5,-84.6,46.2,-42.6,62.1,0,0,10038,0,208,0,
5.5800,178.2,153.0,-155.7,-81.3,48.9,-35.1,73.8,0,0,10044,0,209,0,
5.5833,180.6,168.0,-153.3,-73.5,53.1,-36.6,73.5,0,0,10050,0,210,0,
5.5867,171.9,159.6,-155.7,-73.2,51.0,-39.9,76.8,0,0,10056,0,211,0,
5.5900,175.5,146.7,-158.4,-79.8,52.5,-38.1,73.8,0,0,10062,0,212,0,
5.5933,181.2,149.1,-155.1,-82.5,46.5,-39.0,69.9,0,0,10068,0,213,0,
5.5967,171.3,151.5,-158.4,-79.5,48.0,-42.0,65.7,0,0,10074,0,214,0,
5.6000,174.9,153.3,-155.1,-74.4,49.8,-36.3,78.3,0,0,10080,0,215,0,
5.6033,176.1,148.8,-155.1,-75.0,49.8,-34.5,76.2,0,0,10086,0,216,0,
5.6067,176.1,144.0,-160.8,-78.3,49.8,-34.2,69.9,0,0,10092,0,217,0,
5.6100,181.2,137.1,-158.1,-83.1,48.3,-36.0,65.7,0,0,10098,0,218,0,
5.6133,170.4,144.6,-156.9,-81.0,53.4,-34.8,66.6,0,0,10104,0,219,0,
5.6167,174.6,158.1,-149.1,-67.5,51.9,-35.7,73.2,0,0,10110,0,220,0,
5.6200,168.6,155.1,-155.1,-73.2,46.5,-41.4,72.0,0,0,10116,0,221,0,
5.6233,174.0,146.1,-158.7,-75.3,47.4,-38.1,69.9,0,0,10122,0,222,0,
5.6267,177.3,138.0,-156.3,-77.7,51.0,-36.0,66.6,0,0,10128,0,223,0,
5.6300,174.6,140.7,-158.4,-81.3,52.8,-33.6,70.5,0,0,10134,0,224,0,
5.6333,172.5,142.2,-153.9,-78.0,51.3,-38.4,67.8,0,0,10140,0,225,0,
5.6367,179.7,151.5,-154.8,-78.6,51.6,-37.8,78.6,0,0,10146,0,226,0,
5.6400,179.1,146.1,-156.3,-79.2,51.0,-35.1,73.2,0,0,10152,0,227,0,
5.6433,175.5,143.4,-160.5,-85.8,47.7,-36.9,65.4,0,0,10158,0,228,0,
5.6467,171.0,145.5,-159.0,-83.1,47.1,-40.2,65.4,0,0,10164,0,229,0,
5.6500,177.9,153.9,-154.8,-79.8,49.2,-37.2,71.4,0,0,10170,0,230,0,
5.6533,189.9,158.7,-147.6,-72.9,51.0,-33.6,74.7,0,0,10176,0,231,0,
5.6567,188.4,154.2,-153.6,-77.7,51.3,-31.8,75.9,0,0,10182,0,232,0,
5.6600,190.2,155.7,-151.2,-81.9,50.4,-35.7,68.7,0,0,10188,0,233,0,
5.6633,181.5,142.2,-153.9,-85.5,48.3,-39.0,72.0,0,0,10194,0,234,0,
5.6667,185.4,147.9,-151.2,-77.1,51.9,-35.1,72.0,0,0,10200,0,235,0,
5.6700,178.5,149.1,-156.6,-82.8,48.6,-36.9,67.8,0,0,10206,0,236,0,
5.6733,179.1,140.1,-159.9,-84.9,49.2,-36.3,68.1,0,0,10212,0,237,0,
5.6767,178.2,134.7,-168.0,-90.0,46.2,-35.1,63.0,0,0,10218,0,238,0,
5.6800,180.6,146.4,-160.2,-79.8,53.4,-30.9,70.2,0,0,10224,0,239,0,
5.6833,173.7,151.5,-161.4,-76.5,47.1,-36.3,70.8,0,0,10230,0,240,0,
5.6867,178.5,147.3,-162.6,-76.8,47.7,-36.9,71.4,0,0,10236,0,241,0,
5.6900,176.7,144.0,-165.0,-79.2,45.6,-41.4,66.9,0,0,10242,0,242,0,
5.6933,181.2,147.3,-164.4,-81.6,45.6,-37.8,69.0,0,0,10248,0,243,0,
5.6967,171.3,135.0,-161.4,-78.6,48.9,-36.9,62.4,0,0,10254,0,244,0,
5.7000,181.5,139.8,-161.1,-76.2,51.9,-29.1,76.2,0,0,10260,0,245,0,
5.7033,185.7,143.1,-160.8,-72.3,52.5,-33.0,75.6,0,0,10266,0,246,0,
5.7067,182.7,141.6,-165.9,-81.0,49.2,-32.1,68.7,0,0,10272,0,247,0,
5.7100,179.1,129.0,-171.0,-85.8,51.0,-31.2,61.8,0,0,10278,0,248,0,
5.7133,177.3,127.2,-171.3,-82.8,48.3,-30.9,71.4,0,0,10284,0,249,0,
5.7167,170.1,139.2,-164.7,-77.7,50.4,-32.1,69.0,0,0,10290,0,250,0,
5.7200,169.5,135.6,-168.9,-80.1,46.8,-37.2,63.9,0,0,10296,0,251,0,
5.7233,176.4,135.3,-170.1,-82.8,46.5,-36.9,64.5,0,0,10302,0,252,0,
5.7267,177.3,145.2,-165.0,-82.2,46.5,-36.0,68.4,0,0,10308,0,253,0,
5.7300,175.5,144.9,-164.4,-78.9,44.4,-35.1,68.1,0,0,10314,0,254,0,
5.7333,180.0,145.2,-163.2,-79.8,42.3,-38.7,69.3,0,0,10320,0,255,0,
5.7367,180.3,151.8,-159.3,-80.1,45.9,-37.5,70.2,0,0,10326,0,0,0,
5.7400,180.9,146.7,-163.5,-80.7,45.6,-34.2,75.3,0,0,10332,0,1,0,
5.7433,190.2,142.5,-161.7,-84.0,47.7,-30.0,77.7,0,0,10338,0,2,0,
5.7467,179.1,151.8,-159.0,-81.3,49.5,-28.5,81.9,0,0,10344,0,3,0,
5.7500,183.3,147.3,-161.7,-80.7,48.9,-28.5,76.5,0,0,10350,0,4,0,
5.7533,178.2,159.0,-159.6,-77.7,48.0,-31.5,72.3,0,0,10356,0,5,0,
5.7567,180.0,155.4,-160.2,-79.2,45.6,-32.4,70.8,0,0,10362,0,6,0,
5.7600,180.9,144.6,-162.9,-84.6,41.7,-36.0,70.2,0,0,10368,0,7,0,
5.7633,179.1,142.2,-159.9,-80.4,45.6,-36.0,76.8,0,0,10374,0,8,0,
5.7667,180.9,150.0,-154.5,-73.5,48.0,-31.8,79.5,0,0,10380,0,9,0,
5.7700,177.3,150.0,-157.8,-75.6,44.1,-38.7,74.7,0,0,10386,0,10,0,
5.7733,174.3,153.9,-159.0,-76.5,44.4,-36.3,77.4,0,0,10392,0,11,0,
5.7767,173.7,133.5,-166.8,-84.0,43.2,-34.8,75.0,0,0,10398,0,12,0,
5.7800,164.1,136.8,-163.2,-79.5,44.1,-39.6,67.2,0,0,10404,0,13,0,
5.7833,164.7,147.9,-161.4,-75.9,43.8,-42.6,69.0,0,0,10410,0,14,0,
5.7867,177.3,150.0,-164.4,-76.8,46.8,-42.3,72.6,0,0,10416,0,15,0,
5.7900,175.5,134.1,-165.6,-80.7,42.9,-42.9,64.2,0,0,10422,0,16,0,
5.7933,168.6,126.9,-173.4,-85.8,40.2,-44.4,57.6,0,0,10428,0,17,0,
5.7967,171.3,144.0,-162.0,-80.1,42.9,-40.8,63.9,0,0,10434,0,18,0,
5.8000,166.8,148.2,-162.3,-80.1,43.5,-40.5,65.7,0,0,10440,0,19,0,
5.8033,159.3,153.6,-158.7,-78.6,42.0,-43.2,63.9,0,0,10446,0,20,0,
5.8067,160.8,152.1,-158.7,-80.1,37.8,-44.4,67.2,0,0,10452,0,21,0,
5.8100,165.9,150.9,-159.0,-83.7,40.8,-44.1,61.8,0,0,10458,0,22,0,
5.8133,175.8,160.8,-152.1,-79.5,43.2,-39.6,77.1,0,0,10464,0,23,0,
5.8167,185.4,177.0,-142.8,-66.3,48.0,-33.9,82.5,0,0,10470,0,24,0,
5.8200,176.4,180.0,-146.1,-72.9,44.4,-40.8,77.1,0,0,10476,0,25,0,
5.8233,173.4,171.3,-150.9,-78.9,41.1,-44.4,65.4,0,0,10482,0,26,0,
5.8267,173.4,170.7,-149.7,-75.6,40.8,-41.1,72.0,0,0,10488,0,27,0,
5.8300,174.6,176.4,-146.1,-75.9,37.8,-41.1,70.2,0,0,10494,0,28,0,
5.8333,176.4,191.1,-142.2,-71.7,37.8,-45.6,71.1,0,0,10500,0,29,0,
5.8367,171.6,181.5,-142.8,-70.8,40.2,-42.9,73.5,0,0,10506,0,30,0,
5.8400,170.7,179.4,-145.2,-73.5,40.2,-41.7,74.4,0,0,10512,0,31,0,
5.8433,172.5,179.7,-143.4,-73.8,41.7,-38.1,74.1,0,0,10518,0,32,0,
5.8467,174.3,198.0,-138.9,-74.1,39.0,-39.6,80.7,0,0,10524,0,33,0,
5.8500,164.7,193.8,-136.8,-68.1,36.6,-39.3,81.6,0,0,10530,0,34,0,
5.8533,164.4,195.3,-138.3,-67.8,39.6,-38.7,82.5,0,0,10536,0,35,0,
5.8567,160.8,198.6,-139.2,-68.1,37.2,-38.7,79.2,0,0,10542,0,36,0,
5.8600,156.6,195.0,-135.3,-73.2,38.7,-42.9,71.1,0,0,10548,0,37,0,
5.8633,157.2,191.7,-141.3,-69.0,38.4,-43.8,75.3,0,0,10554,0,38,0,
5.8667,161.4,207.6,-128.7,-63.0,41.7,-39.6,80.4,0,0,10560,0,39,0,
5.8700,156.6,208.5,-129.6,-65.1,36.9,-45.3,81.0,0,0,10566,0,40,0,
5.8733,148.8,204.0,-135.0,-69.3,41.1,-45.6,83.4,0,0,10572,0,41,0,
5.8767,148.8,212.1,-133.8,-71.4,40.2,-42.9,83.7,0,0,10578,0,42,0,
5.8800,148.5,213.9,-134.4,-72.3,38.1,-42.9,89.7,0,0,10584,0,43,0,
5.8833,146.7,220.8,-132.0,-70.2,39.0,-39.0,104.7,0,0,10590,0,44,0,
5.8867,141.0,218.7,-135.3,-66.9,37.2,-40.8,104.4,0,0,10596,0,45,0,
5.8900,135.0,207.0,-136.5,-73.2,32.7,-49.2,89.7,0,0,10602,0,46,0,
5.8933,148.2,193.8,-149.4,-80.7,32.7,-51.9,79.5,0,0,10608,0,47,0,
5.8967,133.2,209.1,-137.4,-76.8,36.6,-46.2,89.1,0,0,10614,0,48,0,
5.9000,141.3,216.3,-135.6,-68.7,39.3,-47.7,88.8,0,0,10620,0,49,0,
5.9033,139.8,215.7,-133.2,-68.4,36.6,-49.2,82.2,0,0,10626,0,50,0,
5.9067,143.7,218.4,-130.8,-65.4,36.6,-48.9,88.5,0,0,10632,0,51,0,
5.9100,145.2,214.2,-132.6,-70.5,39.3,-43.5,93.3,0,0,10638,0,52,0,
5.9133,143.4,200.1,-138.9,-69.0,43.5,-45.0,93.3,0,0,10644,0,53,0,
5.9167,144.0,208.2,-128.4,-62.1,44.7,-41.7,93.9,0,0,10650,0,54,0,
5.9200,144.6,209.4,-137.7,-67.5,40.2,-42.0,99.9,0,0,10656,0,55,0,
5.9233,144.6,211.2,-136.5,-69.6,37.8,-40.5,103.2,0,0,10662,0,56,0,
5.9267,143.7,204.0,-139.2,-74.7,41.7,-41.7,104.4,0,0,10668,0,57,0,
5.9300,137.4,198.3,-141.3,-78.0,40.2,-42.9,94.5,0,0,10674,0,58,0,
5.9333,134.4,195.9,-144.6,-76.8,38.4,-45.9,95.1,0,0,10680,0,59,0,
5.9367,140.7,191.7,-146.7,-76.8,39.9,-47.4,90.6,0,0,10686,0,60,0,
5.9400,145.2,197.1,-144.6,-76.2,44.1,-43.5,94.5,0,0,10692,0,61,0,
5.9433,147.6,194.4,-147.9,-79.8,42.9,-39.3,91.2,0,0,10698,0,62,0,
5.9467,142.2,193.2,-148.5,-77.7,48.0,-32.7,97.2,0,0,10704,0,63,0,
5.9500,142.8,183.9,-150.6,-75.3,51.0,-31.8,101.1,0,0,10710,0,64,0,
5.9533,151.2,185.7,-149.1,-75.0,49.2,-28.5,100.5,0,0,10716,0,65,0,
5.9567,147.6,184.5,-151.2,-77.4,46.8,-28.8,99.9,0,0,10722,0,66,0,
5.9600,159.3,185.1,-156.3,-81.0,51.3,-24.6,106.2,0,0,10728,0,67,0,
5.9633,156.9,179.4,-157.2,-83.4,48.6,-32.1,92.7,0,0,10734,0,68,0,
5.9667,155.7,185.7,-155.7,-78.3,47.7,-28.8,96.6,0,0,10740,0,69,0,
5.9700,157.5,183.3,-156.0,-77.1,47.1,-31.5,91.5,0,0,10746,0,70,0,
5.9733,170.1,183.6,-153.3,-75.6,52.8,-30.6,96.6,0,0,10752,0,71,0,
5.9767,166.5,171.6,-158.7,-77.7,51.0,-36.0,87.6,0,0,10758,0,72,0,
5.9800,163.2,170.7,-157.2,-80.4,48.6,-36.0,88.5,0,0,10764,0,73,0,
5.9833,160.8,186.0,-153.3,-75.3,50.1,-32.7,92.7,0,0,10770,0,74,0,
5.9867,157.8,175.5,-156.9,-78.0,48.6,-30.9,92.4,0,0,10776,0,75,0,
5.9900,162.0,168.9,-156.9,-77.7,45.9,-33.9,93.9,0,0,10782,0,76,0,
5.9933,162.0,154.8,-162.0,-84.0,45.0,-37.2,83.7,0,0,10788,0,77,0,
5.9967,153.3,155.7,-161.1,-80.4,41.4,-39.9,81.0,0,0,10794,0,78,0,
6.0000,159.3,159.6,-160.2,-78.3,42.3,-41.4,78.9,0,0,10800,0,79,0,
6.0033,154.5,159.9,-159.3,-77.7,46.2,-36.6,85.2,0,0,10806,0,80,0,
6.0067,163.2,161.1,-156.3,-77.1,47.1,-36.0,81.3,0,0,10812,0,81,0,
6.0100,172.5,158.1,-159.3,-80.1,45.9,-32.1,88.2,0,0,10818,0,82,0,
6.0133,161.4,159.0,-160.8,-78.9,42.6,-42.6,76.5,0,0,10824,0,83,0,
6.0167,171.9,171.3,-157.8,-71.1,49.5,-36.6,83.7,0,0,10830,0,84,0,
6.0200,171.6,170.1,-154.2,-70.5,50.4,-40.8,87.9,0,0,10836,0,85,0,
6.0233,163.2,168.0,-160.2,-76.8,42.6,-45.0,77.7,0,0,10842,0,86,0,
6.0267,157.5,143.7,-168.9,-80.1,44.4,-41.7,76.2,0,0,10848,0,87,0,
6.0300,160.8,143.1,-167.7,-81.6,43.2,-43.5,78.3,0,0,10854,0,88,0,
6.0333,163.5,152.4,-163.2,-77.7,48.3,-36.9,84.6,0,0,10860,0,89,0,
6.0367,167.7,164.4,-157.2,-71.1,47.1,-37.2,87.9,0,0,10866,0,90,0,
6.0400,161.4,152.4,-163.8,-80.4,44.4,-42.9,79.2,0,0,10872,0,91,0,
6.0433,162.6,140.1,-169.5,-83.1,42.6,-47.1,63.3,0,0,10878,0,92,0,
6.0467,159.3,144.9,-165.9,-81.9,45.0,-43.2,69.6,0,0,10884,0,93,0,
6.0500,161.1,142.2,-163.8,-77.1,45.6,-43.8,69.6,0,0,10890,0,94,0,
6.0533,153.0,156.0,-160.2,-80.1,38.4,-48.6,65.1,0,0,10896,0,95,0,
6.0567,150.3,139.5,-171.3,-85.2,34.8,-54.0,57.6,0,0,10902,0,96,0,
6.0600,150.9,130.5,-172.8,-91.5,34.8,-54.3,56.7,0,0,10908,0,97,0,
6.0633,151.8,132.9,-169.2,-84.9,37.2,-51.0,62.7,0,0,10914,0,98,0,
6.0667,149.1,139.5,-165.0,-78.0,38.1,-48.0,64.5,0,0,10920,0,99,0,
